87	ThroughSeriesAnalysis4.0DATA	ngallego	29/05/2025	19:32:28	Number Of Statistical Points : 87	Number Of Statistical Regions : 22	XY Calibration : X*4.0 (um) : Y*4.0 (um)	Threshold Max : OFF	Threshold Min : -3.40282346638529E38	
Region			29		30		31		32		33		34		35		36		37		38		39		40		41		42		43		44		45		46		47		48		49		50
Description			_Background Rectangle (296,249 : 300,254) Colour(255) Label(29)		_Background Rectangle (305,208 : 309,215) Colour(255) Label(30)		_Background Rectangle (292,202 : 299,207) Colour(255) Label(31)		_Background Rectangle (320,187 : 328,197) Colour(255) Label(32)		_Background Rectangle (210,112 : 218,115) Colour(255) Label(33)		_Background Rectangle (148,160 : 157,164) Colour(255) Label(34)		_Background Rectangle (165,158 : 169,167) Colour(255) Label(35)		_Background Rectangle (173,167 : 178,173) Colour(255) Label(36)		_Background Rectangle (135,142 : 141,145) Colour(255) Label(37)		_Background Rectangle (31,118 : 35,124) Colour(255) Label(38)		_Background Rectangle (58,166 : 63,172) Colour(255) Label(39)		_Background Rectangle (63,189 : 70,197) Colour(255) Label(40)		_Background Rectangle (289,113 : 293,122) Colour(255) Label(41)		_Background Rectangle (287,99 : 292,105) Colour(255) Label(42)		_Background Rectangle (320,230 : 328,235) Colour(255) Label(43)		_Background Rectangle (218,237 : 224,244) Colour(255) Label(44)		_Background Rectangle (222,160 : 226,167) Colour(255) Label(45)		_Background Rectangle (216,116 : 222,121) Colour(255) Label(46)		_Background Rectangle (99,160 : 106,165) Colour(255) Label(47)		_Background Rectangle (151,139 : 157,148) Colour(255) Label(48)		_Background Rectangle (103,213 : 108,218) Colour(255) Label(49)		_Background Rectangle (49,193 : 55,197) Colour(255) Label(50)
Area (um*um)			320.0		448.0		560.0		1280.0		384.0		576.0		576.0		480.0		288.0		384.0		480.0		896.0		576.0		480.0		640.0		672.0		448.0		480.0		560.0		864.0		400.0		384.0
Frame	Time (ms)		Mean Intensity 		Mean Intensity 		Mean Intensity 		Mean Intensity 		Mean Intensity 		Mean Intensity 		Mean Intensity 		Mean Intensity 		Mean Intensity 		Mean Intensity 		Mean Intensity 		Mean Intensity 		Mean Intensity 		Mean Intensity 		Mean Intensity 		Mean Intensity 		Mean Intensity 		Mean Intensity 		Mean Intensity 		Mean Intensity 		Mean Intensity 		Mean Intensity 		
0	807		0.7682		0.8142		0.8026		0.8559		0.808		0.8674		0.8489		0.8803		0.9218		0.6863		0.6789		0.7155		0.6947		0.7047		0.6226		0.6855		0.6352		0.7007		0.8004		0.735		0.7015		0.8068		
1	11093		0.7578		0.8068		0.8164		0.8346		0.7864		0.8721		0.8485		0.877		0.9374		0.6658		0.688		0.7014		0.6755		0.7035		0.6184		0.6562		0.6198		0.7067		0.7966		0.7397		0.7449		0.8248		
2	21071		0.7602		0.8252		0.8043		0.8608		0.8143		0.8936		0.8536		0.8833		0.9856		0.6487		0.7048		0.7979		0.6808		0.722		0.6292		0.6782		0.6499		0.7072		0.7952		0.7506		0.7238		0.7963		
3	31072		0.7826		0.817		0.8137		0.856		0.7815		0.8678		0.8695		0.8864		0.9489		0.6668		0.7164		0.7231		0.6835		0.718		0.6125		0.6985		0.632		0.711		0.8148		0.7371		0.737		0.8502		
4	41072		0.7816		0.8381		0.8115		0.8679		0.8214		0.9025		0.8525		0.8915		0.9493		0.684		0.7322		0.805		0.6795		0.7153		0.6275		0.6951		0.6433		0.7013		0.8199		0.7353		0.7444		0.8537		
5	51070		0.7982		0.8383		0.8359		0.8612		0.8033		0.8627		0.8543		0.89		0.9516		0.6798		0.7154		0.7303		0.6772		0.7125		0.6164		0.6906		0.6387		0.7144		0.814		0.7477		0.7426		0.8312		
6	61070		0.7749		0.8089		0.8151		0.8568		0.7929		0.8818		0.8754		0.8855		0.9361		0.6905		0.7272		0.7516		0.687		0.7066		0.6094		0.6868		0.6453		0.7237		0.8182		0.7377		0.7406		0.8268		
7	71070		0.7828		0.8154		0.8261		0.8758		0.8124		0.8756		0.8626		0.9116		0.9504		0.6355		0.7334		0.7378		0.6898		0.7281		0.624		0.6886		0.6487		0.7159		0.8028		0.7431		0.7718		0.8231		
8	81072		0.7638		0.8288		0.8268		0.8611		0.8278		0.8806		0.8399		0.9072		0.9784		0.6611		0.734		0.7486		0.6837		0.7122		0.6238		0.7085		0.6404		0.7136		0.8238		0.7264		0.7347		0.8124		
9	91068		0.8378		0.8342		0.8314		0.8533		0.8077		0.8959		0.8416		0.8667		0.998		0.6624		0.7394		0.7433		0.6953		0.7064		0.617		0.7139		0.6615		0.739		0.8153		0.7403		0.7306		0.8148		
10	134796		0.7834		0.8845		0.8822		0.8603		0.8318		0.8398		0.8995		0.9495		0.9326		0.8338		0.8563		0.8711		0.778		0.7874		0.7655		0.7072		0.6508		0.8606		0.8804		0.9161		0.8282		0.9601		
11	144785		0.7648		0.8619		0.8412		0.8722		0.8292		0.8387		0.9067		0.9247		0.948		0.8176		0.806		0.8656		0.7838		0.7647		0.7558		0.7029		0.6562		0.8446		0.8648		0.8993		0.8074		0.9188		
12	154785		0.7433		0.858		0.8813		0.8465		0.8125		0.8269		0.9093		0.9225		0.9393		0.8138		0.7859		0.8319		0.7713		0.7674		0.7531		0.6607		0.6531		0.8554		0.8591		0.914		0.8155		0.8876		
13	164785		0.7131		0.8678		0.8441		0.8326		0.778		0.8406		0.8995		0.9293		0.9173		0.8476		0.764		0.8204		0.7573		0.7595		0.7541		0.6767		0.6383		0.8061		0.865		0.9214		0.8161		0.8945		
14	174786		0.7119		0.8584		0.8292		0.8254		0.805		0.8212		0.8985		0.9293		0.9432		0.855		0.7866		0.8053		0.7585		0.7675		0.737		0.6714		0.6374		0.7921		0.8292		0.9249		0.8144		0.8894		
15	184785		0.7202		0.8594		0.8406		0.8322		0.7886		0.803		0.8818		0.9185		0.9109		0.8302		0.76		0.7834		0.7493		0.7574		0.7551		0.6691		0.6388		0.8114		0.8439		0.9298		0.8395		0.895		
16	194785		0.7153		0.8698		0.8448		0.8261		0.7985		0.8411		0.9066		0.9269		0.8886		0.8576		0.7612		0.8077		0.7603		0.7547		0.7337		0.6837		0.6317		0.7886		0.8332		0.9235		0.7966		0.8693		
17	204784		0.7091		0.862		0.8546		0.8271		0.8144		0.8456		0.9024		0.9309		0.9087		0.8738		0.7864		0.8065		0.7647		0.7542		0.7355		0.6861		0.6411		0.7992		0.8385		0.9258		0.8042		0.8833		
18	262892		0.7668		0.7529		0.6887		0.7025		0.7152		0.6386		0.6221		0.568		0.7622		0.7525		0.9513		0.8981		0.8349		0.8572		0.8704		0.7235		0.6835		0.7145		0.9473		0.7455		0.8695		0.9256		
19	272875		0.7411		0.7579		0.7029		0.7003		0.704		0.6176		0.6261		0.5711		0.7624		0.776		0.9651		0.9256		0.8104		0.8709		0.8645		0.7196		0.6979		0.7123		0.9629		0.7457		0.8854		0.9579		
20	282875		0.7374		0.7419		0.7013		0.695		0.7253		0.6229		0.6161		0.5705		0.7544		0.752		0.953		0.9107		0.8377		0.8764		0.8642		0.7309		0.6996		0.7055		0.9377		0.7313		0.8736		0.9493		
21	292935		0.75		0.7594		0.7029		0.701		0.7176		0.6202		0.6208		0.5679		0.7396		0.752		0.9854		0.9207		0.8369		0.8619		0.892		0.7187		0.7101		0.7178		0.9437		0.7528		0.865		0.9216		
22	302875		0.754		0.7675		0.7088		0.706		0.7975		0.6248		0.6208		0.5661		0.7607		0.7552		0.9744		0.9308		0.8296		0.8716		0.9023		0.7386		0.7073		0.8078		0.9686		0.7555		0.9337		0.9361		
23	312862		0.7481		0.7452		0.7161		0.7192		0.819		0.6313		0.6301		0.5855		0.7617		0.7872		0.9925		0.9431		0.8612		0.8811		0.9181		0.75		0.7032		0.8203		0.9787		0.7544		0.8869		0.9583		
24	322870		0.7589		0.7446		0.7189		0.7157		0.7878		0.6352		0.6218		0.5812		0.7469		0.7801		0.9957		0.9537		0.8458		0.8708		0.8895		0.7349		0.7126		0.7966		0.9613		0.7605		0.9014		0.9541		
25	332859		0.7564		0.7518		0.7389		0.7053		0.7647		0.6418		0.6401		0.5802		0.7489		0.751		1.0057		0.9317		0.8438		0.907		0.8901		0.7297		0.7016		0.7711		0.9408		0.7616		0.8865		0.962		
26	342859		0.7626		0.764		0.7354		0.7112		0.7756		0.6359		0.6342		0.5796		0.7461		0.791		0.9976		0.9614		0.8553		0.865		0.8971		0.7312		0.7031		0.7559		0.9426		0.7546		0.8792		0.9482		
27	352859		0.7589		0.7508		0.721		0.7154		0.7689		0.6317		0.6384		0.5836		0.7607		0.7656		0.9689		0.9631		0.842		0.8784		0.9089		0.7326		0.7185		0.7495		0.9882		0.779		0.8784		0.9426		
28	362858		0.7787		0.7525		0.7186		0.7124		0.7669		0.6278		0.628		0.5872		0.8444		0.7545		1.0065		0.9676		0.8362		0.8989		0.9007		0.7305		0.7053		0.7511		0.9956		0.7743		0.8941		0.9569		
29	372858		0.7817		0.749		0.725		0.7191		0.7601		0.6375		0.632		0.5916		0.7654		0.7673		1.0033		0.9552		0.8368		0.9217		0.9116		0.7409		0.709		0.7742		0.9525		0.759		0.8865		0.9431		
30	382860		0.751		0.7564		0.7262		0.718		0.7665		0.6336		0.6413		0.5863		0.7687		0.8032		0.9692		0.9492		0.8427		0.8774		0.8953		0.7342		0.7021		0.7676		0.9528		0.7573		0.8656		0.9427		
31	392858		0.8129		0.7776		0.7567		0.7307		0.7875		0.6545		0.6579		0.6074		0.7953		0.8276		1.0532		0.9742		0.8775		0.9431		0.9274		0.7565		0.7328		0.7734		0.9917		0.7754		0.9121		1.0207		
32	402857		0.7743		0.74		0.7258		0.7173		0.7543		0.641		0.6374		0.5917		0.774		0.8051		0.9496		0.9509		0.8327		0.8982		0.9022		0.7433		0.7176		0.7667		0.9564		0.7669		0.8896		0.9651		
33	412858		0.7772		0.7585		0.7318		0.7156		0.7455		0.6359		0.6531		0.5897		0.7827		0.7796		1.0049		0.9277		0.8386		0.905		0.8948		0.7358		0.7069		0.7512		0.9599		0.7843		0.8774		0.9446		
34	422857		0.7691		0.7444		0.7228		0.7326		0.7575		0.644		0.655		0.6031		0.7618		0.7791		0.9796		0.916		0.8421		0.8803		0.9023		0.7372		0.7265		0.7817		0.9398		0.7761		0.8824		1.0015		
35	432856		0.7713		0.7622		0.7256		0.7276		0.745		0.6378		0.6459		0.5888		0.7475		0.8064		0.9983		0.9246		0.834		0.8909		0.9216		0.75		0.7113		0.76		0.9768		0.7624		0.8808		0.9492		
36	442856		0.7771		0.7366		0.7359		0.7227		0.736		0.6331		0.6505		0.5991		0.737		0.7958		0.9842		0.9519		0.8356		0.8838		0.9142		0.7301		0.727		0.7566		0.9737		0.7766		0.8809		0.955		
37	452856		0.7466		0.7443		0.7355		0.7157		0.743		0.6373		0.6632		0.6018		0.7536		0.8146		0.9749		0.918		0.8445		0.8971		0.9235		0.7578		0.7251		0.7649		0.98		0.7539		0.8923		0.9648		
38	462855		0.7788		0.7428		0.7455		0.72		0.75		0.6436		0.6493		0.6049		0.7618		0.8077		0.9414		0.9123		0.8486		0.8761		0.8976		0.74		0.7221		0.7588		0.9633		0.7627		0.8833		0.9453		
39	472855		0.7584		0.7478		0.7387		0.7245		0.7613		0.6383		0.6507		0.6004		0.7574		0.8206		0.9728		0.9353		0.8317		0.8671		0.8672		0.7444		0.7042		0.7621		0.9509		0.769		0.8721		0.9467		
40	482855		0.7791		0.7569		0.7465		0.7251		0.7553		0.6428		0.6674		0.6081		0.7283		0.8081		0.9941		0.9031		0.8359		0.8798		0.9215		0.7421		0.7111		0.7811		0.9609		0.7729		0.88		0.9302		
41	524490		1.0625		1.1204		0.9637		1.141		0.9444		0.7758		0.8483		0.9314		0.9797		1.0347		0.9757		0.9624		0.9434		0.9238		0.9939		0.9401		0.8673		0.9308		0.9954		0.97		0.9402		0.9854		
42	534478		0.8821		1.0596		0.8845		0.9668		0.8501		0.7325		0.7673		0.7942		0.9309		0.8934		0.9536		0.9111		0.8809		0.9013		0.9527		0.8413		0.8626		0.8636		0.9981		0.9014		0.8838		0.9839		
43	544478		0.8067		0.9493		0.8389		0.9286		0.7946		0.7167		0.73		0.7382		0.9125		0.9002		0.9715		0.9192		0.8813		0.9035		0.916		0.8049		0.8353		0.8182		0.9674		0.8831		0.914		1.0094		
44	554477		0.7882		0.8624		0.8013		0.9006		0.7886		0.7011		0.6981		0.6589		0.8608		0.872		0.9981		0.9439		0.868		0.8731		0.9287		0.792		0.8064		0.8186		0.9604		0.863		0.8839		0.963		
45	564477		0.7545		0.8682		0.7568		0.8507		0.7809		0.7101		0.6643		0.6213		0.8522		0.8831		0.9468		0.9323		0.8567		0.8962		0.9339		0.7988		0.8034		0.7777		0.9641		0.8675		0.879		0.9625		
46	574477		0.7784		0.8612		0.7664		0.8081		0.7713		0.6918		0.6508		0.6213		0.8082		0.8585		0.9616		0.9412		0.8659		0.869		0.8982		0.7884		0.7839		0.8037		0.9914		0.8888		0.8772		0.934		
47	584477		0.7769		0.8228		0.7709		0.777		0.786		0.6895		0.6577		0.6178		0.837		0.8315		0.9958		0.9267		0.8568		0.8988		0.9047		0.7661		0.7718		0.7946		0.9618		0.8714		0.8975		0.9831		
48	594477		0.7977		0.7925		0.7605		0.7665		0.7785		0.6838		0.6604		0.5986		0.8387		0.8233		0.9933		0.9183		0.8524		0.8871		0.9205		0.7674		0.7685		0.7833		0.964		0.8539		0.8735		0.9503		
49	604476		0.7906		0.7795		0.7481		0.7704		0.7793		0.6934		0.6652		0.6136		0.7928		0.807		0.9427		0.9316		0.8483		0.8948		0.9035		0.7476		0.7439		0.7875		0.9572		0.8222		0.8796		0.9185		
50	614476		0.8083		0.7631		0.7656		0.7722		0.767		0.6845		0.657		0.6183		0.8034		0.8383		0.9609		0.9255		0.8483		0.8908		0.9102		0.7459		0.7479		0.7769		0.9918		0.8184		0.8608		0.9497		
51	624476		0.801		0.7613		0.7596		0.7653		0.749		0.6737		0.6602		0.6194		0.8085		0.8298		0.9562		0.936		0.8284		0.8698		0.9112		0.7448		0.76		0.7676		0.9644		0.7914		0.8823		1.0156		
52	634475		0.8046		0.7662		0.7516		0.7589		0.7534		0.6832		0.665		0.6149		0.7805		0.7924		0.9674		0.922		0.8407		0.8688		0.9016		0.752		0.737		0.7801		0.9442		0.785		0.8945		0.9571		
53	644475		0.7936		0.7788		0.7651		0.7507		0.7584		0.6809		0.6596		0.6116		0.757		0.7954		0.9372		0.9151		0.8503		0.8793		0.9022		0.7623		0.7572		0.7407		0.9632		0.7904		0.8997		0.9344		
54	686208		0.9827		1.1034		0.9581		0.9644		0.9032		0.73		0.7487		0.7218		0.9576		0.9299		1.0049		0.9498		0.9511		0.951		0.9939		0.8926		0.873		0.8914		0.9939		0.9567		0.9402		1.0037		
55	696192		0.8741		1.0579		0.8703		0.9645		0.8306		0.7032		0.7185		0.7131		0.9043		0.8485		0.9899		0.9428		0.9135		0.9238		0.9336		0.842		0.8284		0.8324		0.9767		0.9091		0.8982		0.9551		
56	706194		0.863		1.0035		0.9319		0.9704		0.8054		0.7177		0.7045		0.6714		0.8705		0.8904		0.9926		0.9403		0.8894		0.9316		0.934		0.8187		0.8138		0.794		0.9578		0.8843		0.8829		0.9366		
57	716192		0.8117		0.948		0.8999		0.98		0.7996		0.6952		0.6935		0.6652		0.8562		0.859		1.0259		0.983		0.8808		0.9184		0.9337		0.8056		0.8167		0.8204		0.9841		0.8773		0.9388		0.9681		
58	726191		0.8197		0.9238		0.8134		0.9688		0.7986		0.6926		0.6849		0.6445		0.8423		0.8196		0.9733		0.9539		0.8896		0.898		0.9348		0.7861		0.8275		0.7977		1.0024		0.8522		0.8934		0.9564		
59	736191		0.8004		0.9184		0.8201		0.9475		0.8069		0.6933		0.6864		0.6534		0.8365		0.8382		0.995		0.9316		0.8758		0.8982		0.9136		0.7986		0.8156		0.8164		0.9714		0.855		0.8964		0.9744		
60	746191		0.8247		0.8935		0.8987		0.9634		0.7851		0.7121		0.6976		0.6469		0.8538		0.8335		1.0154		0.9351		0.8699		0.9031		0.9191		0.7839		0.8219		0.8196		0.989		0.8667		0.9355		0.9745		
61	756190		0.8433		0.9022		0.8088		0.9658		0.7968		0.6905		0.688		0.6327		0.8392		0.8442		1.0001		0.9541		0.9048		0.8989		0.945		0.7965		0.7927		0.82		0.9734		0.86		0.9234		0.9958		
62	766190		0.8186		0.9128		0.8161		0.9511		0.8045		0.6856		0.6907		0.6438		0.844		0.8811		1.0056		0.9406		0.8862		0.9053		0.9414		0.8033		0.8425		0.8196		0.9655		0.8665		0.8929		0.9878		
63	776190		0.8022		0.8438		0.9202		0.9357		0.81		0.7007		0.6778		0.6488		0.8403		0.8394		0.9694		0.9165		0.8937		0.9394		0.9226		0.7952		0.8207		0.8251		0.9666		0.8596		0.8821		0.982		
64	786190		0.8122		0.8566		0.8361		0.9332		0.8005		0.7		0.6756		0.6449		0.8112		0.8383		0.9848		0.9401		0.9015		0.9161		0.9282		0.7783		0.8043		0.8256		0.9524		0.8538		0.8771		0.9178		
65	796189		0.8408		0.8357		0.8995		0.9652		0.8247		0.6911		0.6866		0.6484		0.8471		0.8365		0.9639		0.9187		0.8928		0.9296		0.9364		0.8116		0.8173		0.8068		0.9498		0.8604		0.8707		0.9838		
66	806189		0.834		0.8502		0.8512		0.9323		0.7846		0.6722		0.6805		0.6445		0.8343		0.8578		0.9825		0.9547		0.9031		0.8965		0.9354		0.7756		0.8008		0.7917		0.9634		0.8353		0.9012		0.9926		
67	816190		0.8354		0.8485		0.9318		0.9178		0.8148		0.7026		0.6733		0.6434		0.8079		0.9104		0.9813		0.9603		0.8871		0.9198		0.9426		0.7934		0.8391		0.8174		0.9772		0.8696		0.8933		0.9747		
68	826188		0.8284		0.8597		0.8627		0.9343		0.81		0.6866		0.6869		0.6474		0.8143		0.8848		0.9603		0.9262		0.8973		0.9175		0.94		0.8107		0.8102		0.8092		0.9558		0.8554		0.8717		0.9612		
69	836188		0.8303		0.839		0.8626		0.9234		0.8046		0.7069		0.7069		0.65		0.8387		0.8481		0.9727		0.9421		0.9013		0.9349		0.9332		0.7937		0.8235		0.8142		0.9814		0.8587		0.8811		0.9777		
70	846188		0.8171		0.9001		0.8326		0.896		0.7871		0.6507		0.6834		0.6433		0.7881		0.7877		0.8864		0.8077		0.8456		0.8833		0.8801		0.7268		0.7852		0.7856		0.9049		0.7581		0.792		0.8385		
71	881019		0.8572		0.9455		0.8172		0.9497		0.8115		0.7234		0.7097		0.6846		0.8222		0.8141		0.9551		0.8881		0.8933		0.8983		0.9355		0.7889		0.8161		0.8184		0.9163		0.8414		0.8823		0.946		
72	890889		0.8551		1.0262		0.847		0.958		0.8587		0.7576		0.7797		0.7273		0.8163		0.854		0.9439		0.876		0.8969		0.8999		0.9048		0.7857		0.7908		0.8411		0.9379		0.8328		0.8742		0.923		
73	900889		0.8953		1.0091		0.8339		0.9201		0.8387		0.7806		0.7852		0.7469		0.7961		0.8325		0.9318		0.8883		0.8758		0.9143		0.9096		0.7719		0.7769		0.8391		0.951		0.8343		0.8612		0.9286		
74	910889		0.8652		0.9878		0.846		0.8921		0.856		0.7916		0.7844		0.746		0.8121		0.8562		0.9529		0.9032		0.8782		0.9172		0.9059		0.7712		0.7772		0.8386		0.9321		0.8152		0.8534		0.9303		
75	920889		0.8724		0.9533		0.846		0.9264		0.847		0.7817		0.7829		0.773		0.7994		0.8521		0.909		0.9061		0.8734		0.902		0.9239		0.7552		0.7778		0.8279		0.9239		0.8098		0.8881		0.9476		
76	930888		0.8772		0.9233		0.8523		0.9266		0.8068		0.7838		0.7899		0.7573		0.8015		0.8535		0.945		0.8795		0.8633		0.9221		0.9048		0.77		0.7737		0.8404		0.9367		0.8133		0.872		0.9503		
77	940888		0.8595		0.9142		0.8432		0.9076		0.8212		0.7896		0.7821		0.7575		0.807		0.844		0.9772		0.9004		0.8679		0.9292		0.921		0.7715		0.7841		0.8362		0.9275		0.819		0.8787		0.9417		
78	950888		0.8822		0.9004		0.8351		0.8796		0.8416		0.7701		0.7864		0.7652		0.8146		0.8407		0.9192		0.9117		0.8934		0.9098		0.9213		0.7631		0.789		0.837		0.9352		0.8183		0.861		0.8934		
79	960887		0.8797		0.9079		0.842		0.8782		0.826		0.7565		0.7764		0.761		0.8188		0.8436		0.966		0.8971		0.8747		0.9097		0.9296		0.7599		0.8032		0.8531		0.9499		0.82		0.8855		0.9149		
80	970887		0.8751		0.9137		0.8415		0.8897		0.8384		0.7564		0.7578		0.746		0.8273		0.8283		0.9381		0.9059		0.8817		0.9128		0.9099		0.7905		0.793		0.8427		0.9358		0.8299		0.8828		0.8905		
81	980887		0.892		0.8887		0.8538		0.9077		0.8739		0.7601		0.7596		0.7318		0.8383		0.8358		0.9514		0.8891		0.8766		0.9118		0.9253		0.7866		0.7949		0.8672		0.9328		0.8357		0.8773		0.9367		
82	990886		0.8595		0.9088		0.8402		0.8969		0.8412		0.7287		0.754		0.7386		0.8139		0.8722		0.9522		0.9138		0.885		0.9217		0.9003		0.7623		0.8064		0.8682		0.9521		0.8456		0.8553		0.9501		
83	1000886		0.8683		0.9081		0.8517		0.8841		0.8536		0.7405		0.7482		0.7207		0.8427		0.8424		0.9419		0.9096		0.879		0.9107		0.9198		0.8031		0.7827		0.8537		0.9464		0.8409		0.8609		0.9186		
84	1010886		0.8494		0.9191		0.8609		0.8702		0.8674		0.7281		0.7541		0.725		0.8382		0.8389		0.9906		0.906		0.8665		0.8905		0.9145		0.7823		0.7981		0.8734		0.9449		0.846		0.8787		0.926		
85	1020886		0.8399		0.9222		0.8393		0.8865		0.8271		0.7303		0.7456		0.7196		0.8188		0.8326		0.9591		0.9217		0.8923		0.8776		0.9197		0.7707		0.7953		0.8578		0.9265		0.8416		0.8591		0.9181		
86	1030885		0.8665		0.9254		0.8195		0.8788		0.8659		0.7272		0.7436		0.7082		0.8196		0.837		0.9633		0.9048		0.8948		0.9008		0.9305		0.7533		0.7874		0.8243		0.9128		0.8379		0.867		0.9644		
