106	ThroughSeriesAnalysis4.0DATA	ngallego	29/05/2025	19:37:45	Number Of Statistical Points : 106	Number Of Statistical Regions : 6	XY Calibration : X*4.0 (um) : Y*4.0 (um)	Threshold Max : OFF	Threshold Min : -3.40282346638529E38	
Region			29		30		31		32		33		34
Description			_Background Rectangle (202,113 : 210,120) Colour(255) Label(29)		_Background Rectangle (197,122 : 203,132) Colour(255) Label(30)		_Background Rectangle (194,148 : 200,157) Colour(255) Label(31)		_Background Rectangle (194,160 : 205,167) Colour(255) Label(32)		_Background Rectangle (195,174 : 202,181) Colour(255) Label(33)		_Background Rectangle (212,174 : 220,181) Colour(255) Label(34)
Area (um*um)			896.0		960.0		864.0		1232.0		784.0		896.0
Frame	Time (ms)		Mean Intensity 		Mean Intensity 		Mean Intensity 		Mean Intensity 		Mean Intensity 		Mean Intensity 		
0	929		10.0902		12.0626		9.8824		10.717		9.0128		10.1981		
1	11234		10.0397		10.9672		9.5681		10.5449		8.7899		9.6938		
2	22011		10.0079		12.212		9.6514		10.4178		8.7132		9.6587		
3	31999		9.7452		11.8544		9.3364		10.222		8.8412		9.835		
4	42013		9.9797		12.1085		9.4453		10.0856		8.8393		9.3774		
5	52013		10.2501		12.3287		9.4528		10.5963		8.9065		9.6755		
6	62014		9.946		11.8098		9.7062		10.596		8.849		9.9672		
7	72012		10.0234		11.4856		9.3834		10.3179		9.0895		9.4479		
8	82012		10.552		12.1652		9.7288		10.227		8.9612		9.7511		
9	92013		9.7527		11.5115		9.4257		10.3435		9.1787		9.5866		
10	102014		10.0321		11.5437		9.2146		10.0845		8.7771		9.9134		
11	112011		9.9753		11.993		9.5555		10.2488		8.4847		9.7191		
12	122012		10.0501		11.3437		9.553		10.3059		8.6775		9.7727		
13	132010		9.9553		11.8657		9.6197		10.1047		8.9996		9.9862		
14	142010		9.9514		11.5502		9.528		10.2338		8.6908		9.8162		
15	152010		10.3043		11.9274		9.9294		10.6326		8.9489		9.774		
16	162010		10.113		12.4153		9.2501		10.5393		9.2319		9.8897		
17	172009		10.7477		13.064		9.5418		10.4651		9.1967		9.8492		
18	182009		10.5083		11.866		9.8578		10.4894		8.7901		9.5635		
19	192009		9.8671		12.572		9.6642		10.5653		9.0484		9.5269		
20	202009		9.9181		12.1555		9.5397		10.6193		9.0011		10.0319		
21	212008		10.1816		12.8236		9.9616		10.169		9.3502		10.0621		
22	222009		10.3048		12.3287		9.45		11.0628		11.2399		9.9754		
23	293037		10.1196		12.7064		10.1705		10.8362		9.465		10.6949		
24	303021		10.5273		12.8924		9.7726		10.3568		9.517		10.0904		
25	313021		10.0234		14.4482		9.5855		10.1773		8.9946		10.0986		
26	323020		10.1364		12.2697		9.5116		10.4426		9.0061		10.4517		
27	333022		9.858		12.79		9.4064		10.5724		8.8629		10.0248		
28	343020		10.3175		11.444		9.42		10.3667		9.0553		10.0307		
29	353019		10.5602		12.4854		9.5651		10.4733		9.0033		9.8459		
30	363019		10.1469		11.9214		9.6739		10.4265		8.8807		9.9707		
31	373020		10.0448		11.7174		9.5005		10.2749		8.9635		10.1529		
32	383019		10.3809		12.8352		9.8687		10.2798		8.9359		10.1142		
33	393018		10.0483		12.3053		9.7771		10.3096		9.1063		10.2831		
34	403018		10.528		11.1002		9.4543		10.5966		9.0044		10.1717		
35	413018		10.0232		12.5272		9.8033		10.6525		9.172		10.2482		
36	423017		9.9661		11.9546		9.4301		10.5604		8.5863		10.1308		
37	471643		21.0226		22.3315		29.3341		27.315		30.4765		38.2557		
38	481625		15.8933		18.2245		19.3405		19.88		17.9002		27.801		
39	491625		13.4918		18.5771		16.9023		16.2468		15.4487		26.4663		
40	501624		13.7906		16.1433		15.764		16.2135		14.9739		19.6387		
41	511624		12.493		16.0851		15.5817		16.6314		14.0836		17.4264		
42	521626		13.9779		17.6608		15.7436		16.7701		15.0179		17.783		
43	531623		13.7645		16.5425		15.7256		17.2453		14.593		16.411		
44	541623		13.2561		16.6553		16.1287		16.5175		13.741		15.3533		
45	551626		12.7674		16.0024		14.8875		15.8706		14.1146		15.7201		
46	561622		13.4689		16.751		14.7846		16.2667		14.5233		14.5856		
47	571622		12.7224		16.3632		14.6199		15.2824		13.7768		14.1245		
48	581623		13.8446		15.9124		14.5023		15.2942		13.3331		14.5823		
49	591622		12.9748		14.9981		14.6161		15.756		13.6812		13.577		
50	601622		13.3299		15.1896		14.766		15.1183		13.6659		12.9825		
51	611621		12.6073		15.1333		13.7119		14.629		13.4599		12.8659		
52	621621		13.6353		16.1888		14.268		15.0698		12.9576		13.0308		
53	631620		13.1439		15.3113		14.203		15.3966		13.1719		12.8165		
54	641620		13.2296		14.0606		14.9279		14.6827		13.2227		12.9707		
55	651623		12.3541		14.7248		13.8303		14.4574		12.8534		12.7523		
56	701782		14.7793		16.223		14.0793		13.8017		12.353		13.1146		
57	711774		12.1803		13.5781		14.6306		13.5344		11.2829		12.9318		
58	721777		11.8856		14.2624		13.8864		12.9182		11.8559		12.7738		
59	731774		12.7452		13.0505		13.6159		13.8743		11.9292		12.8456		
60	741773		12.0341		14.1893		12.9198		14.3277		11.543		13.5195		
61	751773		12.974		15.2103		13.1697		13.8783		12.6287		12.7916		
62	761773		12.2238		15.0301		12.8321		13.6438		12.3584		13.159		
63	771772		12.5416		14.0564		12.8315		13.281		12.1748		13.4802		
64	781772		12.3806		14.8542		13.3221		13.4387		11.8392		12.4556		
65	791774		12.5855		13.2325		12.8307		13.0359		12.2934		12.4497		
66	801772		12.3443		13.6266		12.9431		13.1922		11.6807		12.8009		
67	811771		11.5988		13.6356		13.7713		12.9994		11.2776		12.1969		
68	821773		12.7962		14.8061		12.907		13.4156		12.1036		12.7331		
69	831771		12.6557		14.3076		12.8541		13.4689		11.6753		12.4682		
70	841770		13.4689		14.579		13.018		13.5988		11.585		12.9394		
71	851770		12.7316		14.0727		13.0262		13.0538		11.9003		12.6658		
72	861770		12.2913		14.5515		12.7919		12.6398		10.9677		12.7067		
73	913614		12.155		13.9235		13.1626		13.0654		11.9621		15.2731		
74	923597		14.2055		15.3549		14.9879		14.2724		12.7033		21.0811		
75	933596		15.3906		15.6567		15.3526		14.4029		12.6034		20.917		
76	943595		15.6327		15.6194		15.4563		14.1825		13.3838		19.988		
77	953595		15.3042		16.1398		14.6629		14.7671		13.9236		20.0506		
78	963595		15.1135		15.1461		14.9132		14.5764		13.7861		17.6196		
79	973595		15.2661		15.8048		14.816		14.6229		14.0084		16.7969		
80	983594		15.4351		16.4018		14.5409		14.4239		13.2901		17.0202		
81	993595		15.1428		15.6532		14.7824		14.3303		13.3976		15.5191		
82	1003594		15.866		16.7964		14.7562		14.5515		13.5808		15.5239		
83	1013593		16.1113		15.7684		14.2969		15.0958		13.3793		14.8384		
84	1023594		16.4834		16.9453		15.0655		14.5519		13.6096		14.9577		
85	1033593		15.6371		16.2679		14.4		14.3943		14.0155		14.4908		
86	1043594		15.6982		16.0409		14.6114		14.1096		14.2665		15.2908		
87	1053592		17.4013		16.0542		13.4156		14.2688		14.099		14.829		
88	1063594		17.4136		16.5939		13.5633		14.1806		12.3826		14.0329		
89	1073591		20.9754		18.9744		13.9251		13.7205		12.5166		15.1958		
90	1083591		22.0594		18.9343		14.293		14.3605		13.1884		13.9715		
91	1093593		20.4357		17.8906		12.9521		14.1274		13.32		15.0384		
92	1103590		18.9959		17.3883		13.6494		14.4717		13.0969		14.7454		
93	1113592		18.6827		16.8026		13.4645		14.0044		13.5047		14.379		
94	1123591		18.5023		17.7668		13.5908		14.1523		13.5476		15.1429		
95	1133590		18.5398		16.7094		13.442		13.1234		12.6434		14.224		
96	1143589		18.6282		16.6622		13.2625		13.8626		13.334		14.9821		
97	1153590		18.4967		16.0938		13.353		13.6139		13.8612		14.534		
98	1163590		17.7403		16.9653		13.612		13.6468		13.292		14.6893		
99	1173588		17.9454		16.218		13.6453		13.7721		12.482		15.2039		
100	1183590		18.0394		17.2127		12.7083		13.8726		13.4485		15.6256		
101	1193588		17.9249		16.1874		12.4492		13.7492		12.9396		14.8739		
102	1203588		16.4175		16.4439		13.2146		13.5178		13.3774		15.1539		
103	1213587		16.7663		16.0676		12.736		13.4258		12.5876		15.1607		
104	1223587		15.8323		14.7894		12.8589		13.1473		12.9937		14.8491		
105	1233586		15.4317		15.9296		12.7476		13.436		12.5218		15.1976		
