112	ThroughSeriesAnalysis4.0DATA	ngallego	29/05/2025	19:27:44	Number Of Statistical Points : 112	Number Of Statistical Regions : 28	XY Calibration : X*4.0 (um) : Y*4.0 (um)	Threshold Max : OFF	Threshold Min : -3.40282346638529E38	
Region			1		2		3		4		5		6		7		8		9		10		11		12		13		14		15		16		17		18		19		20		21		22		23		24		25		26		27		28
Description			_Background Rectangle (317,196 : 322,200) Colour(255) Label(1)		_Background Rectangle (316,202 : 322,207) Colour(255) Label(2)		_Background Rectangle (304,192 : 309,199) Colour(255) Label(3)		_Background Rectangle (313,191 : 316,197) Colour(255) Label(4)		_Background Rectangle (311,219 : 319,223) Colour(255) Label(5)		_Background Rectangle (330,120 : 335,126) Colour(255) Label(6)		_Background Rectangle (264,134 : 271,142) Colour(255) Label(7)		_Background Rectangle (268,159 : 276,169) Colour(255) Label(8)		_Background Rectangle (242,151 : 251,159) Colour(255) Label(9)		_Background Rectangle (229,141 : 238,147) Colour(255) Label(10)		_Background Rectangle (230,168 : 237,172) Colour(255) Label(11)		_Background Rectangle (234,172 : 242,176) Colour(255) Label(12)		_Background Rectangle (266,177 : 269,186) Colour(255) Label(13)		_Background Rectangle (277,204 : 282,211) Colour(255) Label(14)		_Background Rectangle (249,222 : 255,227) Colour(255) Label(15)		_Background Rectangle (232,190 : 236,195) Colour(255) Label(16)		_Background Rectangle (218,191 : 223,196) Colour(255) Label(17)		_Background Rectangle (211,214 : 217,222) Colour(255) Label(18)		_Background Rectangle (229,222 : 236,228) Colour(255) Label(19)		_Background Rectangle (189,212 : 195,219) Colour(255) Label(20)		_Background Rectangle (190,184 : 195,188) Colour(255) Label(21)		_Background Rectangle (193,200 : 195,205) Colour(255) Label(22)		_Background Rectangle (164,185 : 171,191) Colour(255) Label(23)		_Background Rectangle (158,160 : 165,167) Colour(255) Label(24)		_Background Rectangle (186,140 : 192,145) Colour(255) Label(25)		_Background Rectangle (196,123 : 200,128) Colour(255) Label(26)		_Background Rectangle (197,113 : 202,119) Colour(255) Label(27)		_Background Rectangle (209,104 : 214,109) Colour(255) Label(28)
Area (um*um)			320.0		480.0		560.0		288.0		512.0		480.0		896.0		1280.0		1152.0		864.0		448.0		512.0		432.0		560.0		480.0		320.0		400.0		768.0		672.0		672.0		320.0		160.0		672.0		784.0		480.0		320.0		480.0		400.0
Frame	Time (ms)		Mean Intensity 		Mean Intensity 		Mean Intensity 		Mean Intensity 		Mean Intensity 		Mean Intensity 		Mean Intensity 		Mean Intensity 		Mean Intensity 		Mean Intensity 		Mean Intensity 		Mean Intensity 		Mean Intensity 		Mean Intensity 		Mean Intensity 		Mean Intensity 		Mean Intensity 		Mean Intensity 		Mean Intensity 		Mean Intensity 		Mean Intensity 		Mean Intensity 		Mean Intensity 		Mean Intensity 		Mean Intensity 		Mean Intensity 		Mean Intensity 		Mean Intensity 		
0	807		0.7301		0.6899		0.837		0.7543		0.6872		0.6455		0.779		0.6558		0.6862		0.6926		0.5988		0.5254		0.6287		0.6251		0.6354		0.5912		0.6189		0.6062		0.5501		0.5589		0.7267		0.6727		0.6246		0.5773		0.6003		0.613		0.6688		0.7131		
1	11605		0.7533		0.6838		0.8271		0.7504		0.6925		0.6469		0.7904		0.6665		0.6825		0.6857		0.5877		0.5174		0.6342		0.6265		0.6474		0.5816		0.6116		0.6041		0.546		0.5618		0.7381		0.6532		0.6313		0.5746		0.5992		0.6148		0.648		0.7148		
2	21610		0.7295		0.6875		0.8166		0.7736		0.686		0.655		0.7837		0.6623		0.684		0.6874		0.5891		0.5262		0.6232		0.6251		0.6514		0.5745		0.638		0.6133		0.5498		0.5574		0.7243		0.6581		0.6282		0.5669		0.604		0.618		0.669		0.7066		
3	31616		0.7373		0.7028		0.8402		0.7686		0.6934		0.6438		0.8014		0.6629		0.6913		0.6888		0.6011		0.5251		0.6324		0.6278		0.7434		0.5849		0.6282		0.6159		0.5484		0.5571		0.7147		0.679		0.6228		0.5807		0.6076		0.6205		0.6681		0.7219		
4	41615		0.7362		0.6895		0.8309		0.7649		0.6931		0.6486		0.7808		0.664		0.6874		0.6808		0.5994		0.5296		0.6312		0.6316		0.6809		0.5728		0.6239		0.6094		0.5518		0.5553		0.7225		0.6819		0.6193		0.5758		0.5998		0.6111		0.6577		0.7097		
5	51614		0.7488		0.7037		0.8331		0.7569		0.6939		0.634		0.7976		0.6658		0.7035		0.6871		0.5974		0.5317		0.6329		0.6299		0.6624		0.5812		0.6245		0.6067		0.5516		0.5535		0.7297		0.6405		0.6208		0.5767		0.6124		0.6065		0.6604		0.6962		
6	61614		0.7301		0.6949		0.8058		0.7625		0.694		0.6397		0.7856		0.6617		0.6995		0.6819		0.5936		0.5357		0.6307		0.6294		0.6418		0.5755		0.632		0.6059		0.5488		0.5459		0.751		0.6969		0.6301		0.5697		0.6008		0.6074		0.6532		0.6963		
7	71613		0.7294		0.7073		0.84		0.783		0.6785		0.6591		0.7861		0.6712		0.6922		0.6873		0.6042		0.5235		0.6292		0.6263		0.6415		0.5722		0.624		0.6083		0.5485		0.5496		0.7345		0.654		0.6235		0.5787		0.5922		0.6033		0.6513		0.7068		
8	81612		0.746		0.716		0.8148		0.7874		0.6945		0.6473		0.7901		0.6637		0.6995		0.6967		0.6119		0.5313		0.6388		0.6219		0.6423		0.5862		0.6263		0.6111		0.56		0.5541		0.7332		0.6968		0.6218		0.581		0.5946		0.6153		0.6627		0.7191		
9	91613		0.7439		0.713		0.8211		0.7773		0.6954		0.6537		0.795		0.665		0.6988		0.6786		0.6141		0.5305		0.6306		0.6246		0.6467		0.5784		0.6268		0.6305		0.5552		0.5529		0.7116		0.6715		0.6246		0.5862		0.5964		0.6124		0.6616		0.6996		
10	101612		0.7471		0.698		0.8369		0.765		0.7012		0.6509		0.8028		0.6635		0.6992		0.6831		0.6076		0.5339		0.6324		0.6351		0.6437		0.5852		0.6079		0.6429		0.5647		0.5503		0.7188		0.6554		0.6286		0.5868		0.5989		0.6178		0.6601		0.7273		
11	111611		0.7583		0.7034		0.8224		0.7887		0.6952		0.6226		0.7938		0.6489		0.6873		0.6881		0.6238		0.528		0.6412		0.637		0.6569		0.586		0.6168		1.0133		0.585		0.5569		0.7234		0.6605		0.6241		0.5891		0.6028		0.62		0.6534		0.7201		
12	121610		0.7486		0.7192		0.8315		0.7546		0.6973		0.6532		0.7989		0.6562		0.7038		0.6883		0.6248		0.5316		0.6384		0.6271		0.6338		0.5924		0.6195		0.7458		0.905		0.5629		0.7231		0.6509		0.6211		0.5869		0.6194		0.6031		0.6645		0.7031		
13	131611		0.7653		0.6935		0.8356		0.7766		0.6961		0.6367		0.801		0.6645		0.6961		0.6988		0.6216		0.5345		0.6323		0.634		0.6577		0.5831		0.6296		0.8172		0.849		0.5713		0.7364		0.6555		0.6361		0.5906		0.6369		0.6109		0.6638		0.6854		
14	176268		0.7595		0.6935		0.8319		0.7697		0.6855		0.6473		0.7738		0.6549		0.7121		0.6725		0.6217		0.5296		0.6278		0.6311		0.6527		0.6032		0.6174		0.8448		0.9509		0.5672		0.7156		0.6842		0.6402		0.5888		0.6157		0.6184		0.6631		0.7307		
15	186251		0.7541		0.6944		0.8175		0.7563		0.7027		0.6518		0.7839		0.6601		0.7018		0.6766		0.6209		0.5282		0.6188		0.6331		0.6358		0.6014		0.6205		0.7401		0.8857		0.5794		0.7611		0.6665		0.6583		0.5795		0.6056		0.6238		0.6654		0.7267		
16	196259		0.7498		0.6946		0.8112		0.76		0.6914		0.6543		0.7741		0.6658		0.6961		0.6699		0.6022		0.5321		0.6383		0.6246		0.6489		0.5919		0.6188		0.7533		0.8433		0.5822		0.7275		0.6662		0.6696		0.5862		0.6121		0.6051		0.6754		0.7067		
17	206249		0.7482		0.6934		0.8242		0.7722		0.6967		0.6478		0.7847		0.6628		0.6931		0.6696		0.6019		0.5298		0.6313		0.6334		0.6365		0.5857		0.6177		0.7164		0.8319		0.564		0.7177		0.6965		0.6612		0.5756		0.5976		0.632		0.6551		0.6999		
18	216249		0.7361		0.6971		0.8297		0.7847		0.6877		0.6641		0.7908		0.6597		0.6971		0.6779		0.592		0.5351		0.624		0.6327		0.6387		0.7458		0.6292		0.6879		0.7702		0.5638		0.7101		0.6809		0.6717		0.5746		0.6011		0.6043		0.6626		0.7193		
19	226249		0.7436		0.6872		0.8338		0.7571		0.6966		0.6438		0.7897		0.6592		0.6925		0.6753		0.6074		0.5355		0.6437		0.6253		0.6448		1.0921		0.6205		0.6671		0.739		0.5695		0.738		0.6805		0.6723		0.5733		0.5913		0.6071		0.6774		0.7383		
20	236269		0.738		0.7144		0.8146		0.777		0.699		0.6505		0.79		0.6582		0.7076		0.6745		0.5983		0.5365		0.6338		0.6251		0.6455		0.8899		0.6387		0.6481		0.7114		0.5765		0.7337		0.6772		0.6577		0.5734		0.5895		0.6146		0.6703		0.9554		
21	276283		0.8607		0.7814		0.9423		0.8879		0.7516		0.7189		1.2379		1.3246		1.2945		0.8207		1.3924		1.4637		1.1666		1.614		1.3633		0.7881		1.4211		1.3776		1.4989		1.7798		0.9847		0.8418		1.2756		0.6723		1.4598		1.3582		1.2586		0.809		
22	286278		0.822		0.7528		0.9211		0.9222		0.7417		0.6794		1.3569		1.5432		1.5069		1.5585		1.8401		1.662		1.499		1.6931		1.7213		1.4845		1.7667		1.4838		1.7358		2.0333		1.2011		0.9066		1.3299		1.5786		1.8455		1.6754		1.3634		1.1614		
23	296279		0.8026		0.7659		0.9401		0.8845		0.7452		0.6642		1.307		1.4814		1.4491		1.559		1.7261		1.6105		1.5131		1.6984		1.7282		1.2623		1.7586		1.8325		2.0659		2.3997		1.2078		0.9217		1.7598		1.492		1.7392		1.5552		1.3814		1.2466		
24	306277		0.8296		0.7504		0.9226		0.8639		0.7477		0.6771		1.2704		1.4387		1.4424		1.5284		1.6715		1.5138		1.3682		1.6395		1.695		1.1133		1.6758		1.9444		2.0794		2.2752		1.1984		0.905		2.0737		1.4356		1.7143		1.5231		1.376		1.2374		
25	316277		0.839		0.7525		0.9424		0.8869		0.7428		0.6607		1.2619		1.2907		1.3938		1.4734		1.6381		1.4591		1.4038		1.5932		1.6366		0.9054		1.6494		1.9231		2.0108		1.9895		1.1431		0.8695		2.02		1.3398		1.6736		1.5106		1.3211		1.1451		
26	326281		0.8232		0.7321		0.9277		0.8436		0.72		0.6617		1.2331		1.3219		1.353		1.4765		1.61		1.3578		1.3295		1.5923		1.6106		0.9732		1.6807		1.8933		1.9348		1.5077		1.1035		0.8522		1.8811		1.1929		1.5282		1.4045		1.2371		1.0304		
27	336278		0.8152		0.7351		0.9232		0.8508		0.7297		0.68		1.227		1.2602		1.3588		1.4583		1.5286		1.3086		1.2976		1.477		1.5602		1.0563		1.619		1.858		1.9044		1.1779		1.1364		0.8805		1.711		1.1327		1.5151		1.4547		1.2229		0.9328		
28	346277		0.8178		0.7375		0.915		0.8424		0.7199		0.6756		1.2097		1.2699		1.2661		1.4152		1.4461		1.2626		1.2517		1.5767		1.4608		0.9057		1.5516		1.7296		1.8258		0.9596		1.1524		0.8314		1.5815		1.0639		1.4505		1.3841		1.1778		0.8768		
29	356276		0.7852		0.727		0.8885		0.8324		0.7396		0.6735		1.1992		1.2576		1.24		1.3624		1.4569		1.3228		1.2526		1.5468		1.3836		0.8332		1.5578		1.5264		1.7117		0.8601		1.0866		0.8855		1.4337		0.9988		1.3952		1.416		1.1915		0.83		
30	366276		0.8027		0.733		0.9092		0.8219		0.7251		0.6874		1.2315		1.1938		1.2354		1.3434		1.4206		1.3251		1.2635		1.5098		1.3827		0.8432		1.5292		1.3114		1.5912		0.7943		0.9986		0.8295		1.2591		0.9541		1.4683		1.437		1.0882		0.827		
31	376275		0.8126		0.7265		0.8996		0.7974		0.7058		0.6766		1.2131		1.1953		1.1604		1.2757		1.2916		1.2674		1.156		1.4708		1.3509		0.8262		1.4966		1.0506		1.435		0.7304		0.9988		0.7915		1.1177		0.9288		1.3204		1.3271		0.9554		0.7698		
32	386276		0.7735		0.7267		0.8796		0.8165		0.7149		0.6687		1.2165		1.1262		1.1054		1.1844		1.1942		1.1943		1.0613		1.453		1.3149		0.7672		1.4206		0.8957		1.1914		0.6783		0.963		0.7838		1.0098		0.8916		1.2853		1.2691		0.8618		0.757		
33	396276		0.7891		0.7188		0.8869		0.7883		0.7263		0.6764		1.2161		1.0456		1.0914		1.1588		1.2251		1.1981		1.0665		1.4241		1.2892		0.7093		1.4047		0.8219		1.0368		0.6526		0.9747		0.7996		0.9401		0.8742		1.2933		1.2505		0.7953		0.7453		
34	406274		0.7929		0.7252		0.8578		0.8215		0.718		0.6606		1.1495		0.9985		1.0827		1.112		1.1958		1.1508		1.0321		1.353		1.236		0.6688		1.302		0.776		0.9299		0.6468		0.9182		0.7972		0.8976		0.8461		1.1568		1.2614		0.7992		0.7489		
35	416273		0.7758		0.7121		0.8545		0.7882		0.713		0.6605		1.1596		1.0002		1.018		1.0998		1.1535		1.0689		0.9564		1.2231		1.1736		0.6469		1.2645		0.7414		0.8576		0.6345		0.8778		0.7399		0.8675		0.8122		1.0508		1.2521		0.8161		0.7285		
36	426275		0.7696		0.7251		0.8749		0.7957		0.7072		0.656		1.1326		0.9415		0.9599		1.0211		1.0995		0.9628		0.8582		1.1039		1.1097		0.6427		1.2371		0.7149		0.812		0.6267		0.8504		0.7341		0.8687		0.7679		0.9673		1.1259		0.8064		0.7244		
37	436275		0.7712		0.7143		0.8496		0.7755		0.712		0.6576		1.0921		0.9054		0.9244		0.9723		1.0334		0.8906		0.8335		1.0315		1.0659		0.6358		1.1654		0.7078		0.7884		0.6364		0.8413		0.7512		0.8895		0.7575		0.9407		1.0279		0.8153		0.7198		
38	446274		0.7596		0.721		0.8487		0.7692		0.7143		0.6503		1.0774		0.8556		0.9108		0.95		0.996		0.8764		0.8051		1.0154		1.0191		0.6154		1.1461		0.7062		0.8049		0.6376		0.8033		0.6999		0.9116		0.7515		0.9097		1.0302		0.8047		0.7258		
39	456274		0.7508		0.7205		0.8568		0.7791		0.7103		0.6523		1.077		0.8651		0.8991		0.9387		0.9702		0.8654		0.7777		0.9835		0.9689		0.6211		1.0999		0.7238		0.8332		0.6462		0.8108		0.7052		0.9601		0.753		0.9039		1.0491		0.7826		0.7219		
40	466273		0.763		0.7138		0.8441		0.7789		0.7086		0.6581		1.0397		0.8908		0.854		0.9337		0.9892		0.8866		0.7787		1.0034		0.931		0.5964		1.1036		0.7348		0.8883		0.6633		0.8195		0.7288		0.9865		0.7371		0.8884		1.0426		0.7836		0.7431		
41	476273		0.7542		0.7046		0.8517		0.7766		0.7205		0.656		1.0159		0.8304		0.8409		0.9053		0.9638		0.8671		0.7569		0.9555		0.9263		0.5924		1.0861		0.7306		0.8984		0.6581		0.7905		0.7074		1.0276		0.7223		0.8782		1.0051		0.7897		0.7356		
42	486273		0.7661		0.7084		0.8478		0.7569		0.7089		0.6701		0.9703		0.7798		0.838		0.9162		0.9271		0.8373		0.7515		0.8959		0.9206		0.5893		1.1106		0.7611		0.9383		0.6662		0.8093		0.7056		1.0386		0.7284		0.8539		0.9784		0.7919		0.7323		
43	496273		0.7505		0.724		0.8418		0.7889		0.721		0.6653		0.9781		0.7556		0.8172		0.8873		0.9161		0.7916		0.7305		0.9308		0.8878		0.5977		1.063		0.7716		0.9584		0.667		0.8044		0.7056		1.0377		0.6959		0.8663		0.9849		0.7671		0.7315		
44	506272		0.7412		0.7253		0.838		0.7738		0.7039		0.65		0.9848		0.7343		0.8183		0.8737		0.9704		0.7708		0.7121		0.9049		0.9431		0.5923		0.999		0.7911		0.9717		0.6631		0.811		0.725		1.0522		0.6725		0.8362		0.9733		0.7584		0.7053		
45	516272		0.762		0.7321		0.8474		0.7526		0.7079		0.6713		1.0094		0.7352		0.7953		0.8469		0.927		0.7187		0.725		0.8691		0.9402		0.5858		1.0529		0.816		0.9722		0.658		0.7726		0.7008		1.0553		0.6604		0.7815		0.9459		0.7542		0.7169		
46	526271		0.7604		0.704		0.8338		0.7665		0.7069		0.666		0.9548		0.75		0.7927		0.835		0.8548		0.6966		0.714		0.8432		0.8325		0.5785		0.9699		0.8122		0.9531		0.6511		0.7634		0.6729		1.0676		0.6531		0.724		0.873		0.7623		0.697		
47	536271		0.7577		0.7168		0.8345		0.7468		0.706		0.6592		0.9423		0.727		0.769		0.8423		0.8232		0.6612		0.7037		0.833		0.8346		0.5879		0.8963		0.8273		0.9329		0.6435		0.7504		0.6915		1.0662		0.63		0.7658		0.826		0.7417		0.7198		
48	546270		0.7471		0.7218		0.8406		0.7803		0.71		0.6736		0.9522		0.7134		0.7519		0.8085		0.7765		0.6307		0.6902		0.7951		0.8313		0.5778		0.8955		0.8322		0.9008		0.6352		0.7291		0.6613		1.052		0.6316		0.705		0.8037		0.7385		0.7114		
49	556270		0.7582		0.7168		0.8352		0.7591		0.7098		0.658		0.9037		0.6917		0.7382		0.7747		0.7333		0.6047		0.6714		0.7493		0.7966		0.5702		0.8668		0.8508		0.8986		0.6385		0.7483		0.6793		1.0248		0.6272		0.6743		0.7991		0.7194		0.701		
50	566271		0.7416		0.7264		0.8257		0.7584		0.7056		0.6722		0.8881		0.6955		0.7498		0.773		0.7165		0.6041		0.6693		0.7207		0.816		0.5691		0.8759		0.8766		0.9155		0.6417		0.7125		0.6604		1.0341		0.6216		0.6418		0.7743		0.716		0.7224		
51	576270		0.7389		0.722		0.8167		0.7411		0.7125		0.6768		0.8773		0.6895		0.7374		0.7812		0.7224		0.5901		0.6661		0.6984		0.8219		0.5701		0.9127		0.9473		0.9168		0.6414		0.7365		0.6574		1.0554		0.6039		0.64		0.7951		0.7048		0.7461		
52	586270		0.7383		0.7261		0.8382		0.769		0.7022		0.6638		0.869		0.6871		0.7253		0.7685		0.6972		0.5946		0.6523		0.6899		0.8506		0.566		1.0358		1.0153		0.9335		0.6483		0.7138		0.6688		1.0683		0.6168		0.6253		0.7791		0.7002		0.705		
53	596269		0.733		0.7229		0.8321		0.7764		0.7125		0.6671		0.8752		0.68		0.7339		0.7456		0.686		0.589		0.6351		0.6949		0.9181		0.5629		1.1113		1.1164		0.9436		0.6505		0.7307		0.6472		1.0849		0.6007		0.6175		0.766		0.7164		0.7074		
54	606268		0.7542		0.7185		0.8153		0.7659		0.7136		0.6776		0.8635		0.6847		0.7168		0.7377		0.6714		0.5705		0.6522		0.6932		0.9253		0.5623		1.0225		1.1622		0.9414		0.6514		0.7239		0.6575		1.1152		0.6083		0.6241		0.723		0.7306		0.7161		
55	616270		0.7565		0.7217		0.8244		0.7637		0.7069		0.6781		0.8357		0.676		0.7179		0.7238		0.6613		0.5845		0.6383		0.6802		0.8951		0.5773		1.0469		1.2832		0.9183		0.6634		0.7316		0.6894		1.1119		0.6086		0.6144		0.6978		0.7256		0.7052		
56	626269		0.7587		0.7296		0.8292		0.7532		0.7122		0.6741		0.8549		0.6799		0.7142		0.7109		0.6552		0.5827		0.6376		0.6753		0.891		0.5768		1.0529		1.342		0.9369		0.6801		0.7283		0.6418		1.1802		0.6065		0.617		0.6875		0.742		0.6986		
57	636269		0.7603		0.7175		0.8429		0.7719		0.7146		0.6858		0.861		0.6822		0.7077		0.7142		0.6442		0.5725		0.6547		0.6892		0.8883		0.5704		0.8991		1.2833		0.9199		0.7047		0.709		0.6523		1.1916		0.5956		0.5956		0.6694		0.7613		0.7108		
58	646267		0.7553		0.7225		0.8207		0.7452		0.6943		0.6728		0.8906		0.6724		0.7027		0.7033		0.6519		0.5713		0.6531		0.68		0.8488		0.5678		0.8638		1.2444		0.9295		0.7794		0.7218		0.6441		1.167		0.5945		0.589		0.6601		0.797		0.7115		
59	656268		0.7504		0.7164		0.8195		0.7727		0.709		0.6668		0.8551		0.6798		0.6892		0.7078		0.651		0.558		0.6427		0.673		0.8334		0.5629		0.891		1.1883		0.9388		0.9973		0.7218		0.656		1.1319		0.5942		0.6011		0.643		0.8348		0.694		
60	666267		0.7516		0.7121		0.8193		0.7637		0.7065		0.6706		0.8388		0.6707		0.7004		0.7054		0.6437		0.5608		0.6443		0.6531		0.7938		0.5651		0.9115		1.1553		0.9165		0.9458		0.7244		0.6505		1.1623		0.5826		0.5848		0.6452		0.9194		0.6931		
61	676266		0.7373		0.7207		0.8296		0.7906		0.7086		0.6764		0.8284		0.6723		0.697		0.6997		0.6407		0.552		0.6494		0.6684		0.784		0.5754		0.8587		1.0875		0.8758		0.974		0.7259		0.6677		1.1601		0.5765		0.5864		0.6295		1.0236		0.68		
62	686267		0.7505		0.715		0.8254		0.754		0.7076		0.6642		0.7934		0.6645		0.7142		0.7046		0.6392		0.5544		0.6435		0.6516		0.7719		0.5843		0.821		1.0662		0.841		0.9094		0.723		0.6746		1.1465		0.579		0.5875		0.6326		1.1692		0.6836		
63	696269		0.7456		0.7353		0.8401		0.7789		0.7095		0.6681		0.7745		0.6726		0.7007		0.707		0.6286		0.5525		0.6541		0.6536		0.7851		0.5738		0.8344		1.0456		0.841		0.9411		0.7493		0.6621		1.0962		0.583		0.5879		0.6196		1.166		0.7101		
64	706266		0.7407		0.7153		0.8249		0.7715		0.7186		0.68		0.7742		0.6696		0.6956		0.6986		0.6233		0.5443		0.6398		0.6416		0.7803		0.5873		0.8093		0.9932		0.8372		0.916		0.7132		0.6742		1.0965		0.5884		0.59		0.6248		1.092		0.7139		
65	716264		0.7468		0.7253		0.8342		0.7679		0.7046		0.6613		0.7698		0.6686		0.7003		0.6976		0.6266		0.5325		0.6482		0.6346		0.7713		0.5866		0.8282		0.958		0.7966		0.8667		0.7015		0.6614		1.1119		0.5919		0.5947		0.6177		1.0631		0.7048		
66	750487		0.7353		0.7198		0.831		0.7878		0.7018		0.6873		0.7458		0.6542		0.683		0.6768		0.6281		0.5491		0.6424		0.6492		0.7043		0.6061		0.767		0.8371		0.8457		0.723		0.6891		0.6494		1.0209		0.5792		0.6026		0.6164		0.9127		0.7366		
67	760482		0.7559		0.7169		0.8118		0.7946		0.7048		0.6724		0.7538		0.6643		0.6926		0.6827		0.6278		0.5432		0.6446		0.6516		0.6843		0.6019		0.7578		0.8186		0.7866		0.6953		0.7206		0.6776		0.9744		0.581		0.6056		0.5959		0.8998		0.7211		
68	770482		0.7466		0.7163		0.8214		0.7805		0.7129		0.6519		0.7483		0.6696		0.6951		0.6735		0.6117		0.538		0.6346		0.6578		0.7048		0.5912		0.7528		0.8275		0.7342		0.6766		0.7261		0.6553		0.9542		0.5853		0.6051		0.5955		0.8906		0.7304		
69	780483		0.7491		0.7207		0.8158		0.7798		0.7147		0.6626		0.7492		0.6581		0.6929		0.6771		0.618		0.545		0.6405		0.6479		0.6959		0.5832		0.7474		0.8214		0.7003		0.6466		0.7162		0.6614		0.9585		0.5723		0.6131		0.6019		0.8856		0.731		
70	790482		0.7341		0.7111		0.8328		0.7922		0.7217		0.6523		0.7551		0.6539		0.6878		0.68		0.6166		0.5421		0.6506		0.6511		0.7021		0.5868		0.7431		0.8206		0.692		0.6446		0.7541		0.6506		0.9582		0.5722		0.6093		0.6086		0.8785		0.714		
71	800482		0.7514		0.722		0.811		0.7668		0.7027		0.6608		0.7571		0.6624		0.6994		0.6724		0.607		0.5466		0.6282		0.6364		0.6947		0.5929		0.729		0.807		0.7041		0.6307		0.7177		0.6852		0.9525		0.5829		0.608		0.6005		0.8431		0.71		
72	810476		0.7468		0.7127		0.8156		0.7929		0.7116		0.6602		0.7576		0.6601		0.6943		0.6813		0.609		0.5426		0.6423		0.654		0.7187		0.5969		0.7171		0.7858		0.705		0.6273		0.7546		0.6723		0.9618		0.5831		0.5981		0.5923		0.8104		0.7358		
73	820473		0.7403		0.7163		0.8114		0.7996		0.72		0.6599		0.7625		0.667		0.6964		0.6669		0.6088		0.5438		0.6564		0.6501		0.6845		0.5881		0.7244		0.7533		0.7007		0.6136		0.7126		0.635		0.9643		0.5933		0.6079		0.6035		0.7877		0.7574		
74	830473		0.7453		0.7258		0.8325		0.785		0.7278		0.6406		0.7796		0.6665		0.7003		0.6725		0.6056		0.5481		0.6446		0.6486		0.6688		0.6022		0.6918		0.7427		0.6994		0.6109		0.7409		0.659		0.9329		0.5778		0.6106		0.6009		0.7428		0.7387		
75	840474		0.7492		0.7342		0.8205		0.789		0.6958		0.6668		0.7811		0.6705		0.7		0.6757		0.5988		0.5466		0.6547		0.6479		0.6715		0.5942		0.6841		0.7272		0.6737		0.6185		0.7429		0.6591		0.9336		0.5808		0.6085		0.6083		0.7513		0.7525		
76	850473		0.759		0.7206		0.8224		0.7751		0.724		0.6596		0.7506		0.6643		0.7007		0.668		0.5915		0.5348		0.6443		0.6345		0.6833		0.5992		0.6849		0.7171		0.668		0.6103		0.7328		0.6709		0.9182		0.5889		0.6131		0.5993		0.7185		0.7317		
77	860472		0.7608		0.7299		0.8294		0.7695		0.7082		0.6612		0.7586		0.6635		0.7011		0.6713		0.5886		0.5368		0.6465		0.6534		0.6634		0.6006		0.7072		0.7012		0.6606		0.5962		0.7198		0.6663		0.918		0.5841		0.608		0.6116		0.7081		0.7261		
78	870471		0.7512		0.7263		0.8288		0.7933		0.7096		0.6693		0.7512		0.6709		0.7044		0.6802		0.6107		0.5369		0.63		0.6419		0.6677		0.6019		0.675		0.6989		0.6489		0.595		0.7217		0.6837		0.9344		0.5871		0.605		0.6048		0.6886		0.743		
79	880472		0.7505		0.7144		0.8214		0.7809		0.7071		0.6622		0.7474		0.6652		0.7017		0.6859		0.606		0.5381		0.6393		0.637		0.6678		0.608		0.6696		0.7011		0.6601		0.602		0.7381		0.6417		0.9171		0.5856		0.6059		0.6104		0.6916		0.7504		
80	890471		0.7673		0.7164		0.847		0.7823		0.6967		0.6633		0.7528		0.6682		0.7015		0.6841		0.5962		0.5467		0.6444		0.6581		0.6637		0.6076		0.6604		0.7039		0.6593		0.6046		0.7465		0.6809		0.9047		0.5881		0.61		0.6061		0.706		0.7469		
81	900470		0.7647		0.7186		0.8408		0.8029		0.7039		0.6657		0.7537		0.6777		0.7016		0.6729		0.6061		0.5329		0.6651		0.6523		0.6487		0.6159		0.6733		0.7083		0.6513		0.6051		0.7347		0.666		0.9273		0.5806		0.6031		0.598		0.6984		0.7522		
82	910470		0.7589		0.7218		0.8298		0.7981		0.7103		0.685		0.7622		0.6653		0.7045		0.6689		0.6106		0.5359		0.6612		0.6589		0.6476		0.6081		0.676		0.7074		0.6473		0.616		0.7479		0.6872		0.9026		0.5852		0.5949		0.6051		0.6848		0.7649		
83	920470		0.7542		0.7059		0.8371		0.7874		0.7185		0.6653		0.7508		0.671		0.7142		0.6643		0.6023		0.5431		0.6478		0.655		0.6579		0.6121		0.6668		0.7049		0.6514		0.6098		0.7233		0.6673		0.8727		0.5813		0.5994		0.6065		0.7006		0.7966		
84	930470		0.7382		0.7211		0.8256		0.7758		0.722		0.6655		0.7498		0.6749		0.7097		0.6752		0.5997		0.5391		0.6675		0.6565		0.6634		0.6125		0.6667		0.7074		0.6606		0.6213		0.7321		0.6789		0.8342		0.5814		0.6073		0.6014		0.6959		0.785		
85	940469		0.7549		0.7268		0.8207		0.791		0.7145		0.6715		0.7447		0.6741		0.7044		0.6846		0.6016		0.5449		0.6698		0.6773		0.6734		0.6003		0.6893		0.7133		0.6471		0.6076		0.7105		0.672		0.8565		0.5807		0.6025		0.6127		0.6898		0.7604		
86	950469		0.7579		0.7302		0.8366		0.7819		0.717		0.679		0.7588		0.6705		0.6981		0.6838		0.5962		0.5449		0.6548		0.6699		0.6599		0.6123		0.7064		0.7081		0.6408		0.6165		0.7197		0.6691		0.8421		0.5763		0.6097		0.6139		0.6906		0.7757		
87	960469		0.755		0.7262		0.813		0.7967		0.7173		0.6748		0.7649		0.6686		0.7026		0.6797		0.6057		0.5426		0.6724		0.6636		0.6763		0.6137		0.6977		0.7053		0.649		0.6274		0.7631		0.6704		0.8141		0.574		0.5995		0.6269		0.6968		0.7903		
88	970468		0.7536		0.722		0.8225		0.7884		0.715		0.6494		0.7563		0.6724		0.7054		0.6716		0.5971		0.5365		0.6534		0.6581		0.6729		0.6084		0.7298		0.7069		0.6454		0.6457		0.745		0.6771		0.8133		0.5846		0.6023		0.601		0.6807		0.7698		
89	980468		0.757		0.7133		0.8334		0.799		0.7065		0.6642		0.7574		0.6732		0.6883		0.6752		0.6		0.5476		0.6398		0.648		0.669		0.6043		0.7387		0.7179		0.6485		0.6428		0.7255		0.6695		0.8212		0.5755		0.6144		0.606		0.6713		0.7479		
90	990468		0.7618		0.7331		0.8422		0.7915		0.7259		0.6801		0.7608		0.6819		0.7059		0.6717		0.6054		0.5488		0.6529		0.6573		0.672		0.6084		0.6955		0.7077		0.6652		0.6459		0.7438		0.6592		0.8445		0.5691		0.6011		0.6233		0.7005		0.7636		
91	1000467		0.7401		0.7263		0.8415		0.802		0.7252		0.6687		0.763		0.6731		0.6954		0.6746		0.6049		0.5536		0.6511		0.6668		0.6624		0.6151		0.6713		0.7038		0.6432		0.6586		0.7347		0.7061		0.8241		0.5757		0.6197		0.6139		0.681		0.7443		
92	1010467		0.7675		0.7139		0.8327		0.7832		0.7138		0.6657		0.7659		0.6781		0.7092		0.6809		0.6181		0.5494		0.6706		0.6581		0.6623		0.6111		0.6874		0.7147		0.6419		0.6436		0.7432		0.6768		0.8169		0.5798		0.6193		0.6293		0.6999		0.7578		
93	1020468		0.7605		0.7104		0.8344		0.7836		0.7117		0.6634		0.7704		0.6845		0.704		0.6708		0.616		0.5364		0.6591		0.6564		0.6687		0.6234		0.6908		0.7081		0.6481		0.6492		0.7433		0.6892		0.8372		0.5646		0.6258		0.6209		0.6838		0.7646		
94	1047396		0.7379		0.7073		0.7726		0.7851		0.7259		0.6815		0.7826		0.6984		0.772		0.7011		0.6261		0.5775		0.7061		0.7022		0.6827		0.7728		0.7588		0.8312		0.7754		0.7267		0.7769		0.6821		0.9207		0.5994		0.6828		0.6675		1.1023		0.9099		
95	1057380		0.7585		0.7375		0.7693		0.7978		0.7399		0.7397		0.8223		0.7459		0.7953		0.7362		0.6693		0.6171		0.7593		0.7378		0.7141		0.9141		0.7625		0.9594		0.845		0.7707		0.8086		0.6963		1.0007		0.6351		0.7134		0.7042		1.3387		0.9425		
96	1067379		0.7608		0.7306		0.7976		0.8096		0.7428		0.774		0.8288		0.7666		0.7862		0.7412		0.6928		0.6314		0.7989		0.778		0.7024		0.8716		0.7889		0.9774		0.8351		0.7987		0.803		0.6939		1.0416		0.6514		0.7368		0.7522		1.3493		0.9432		
97	1077381		0.7817		0.7311		0.7754		0.7883		0.7492		0.7921		0.8286		0.7852		0.8094		0.7688		0.7117		0.6599		0.8056		0.7922		0.7159		0.8367		0.7916		0.9971		0.7992		0.8273		0.8101		0.7233		1.0552		0.67		0.7578		0.7583		1.2508		0.956		
98	1087380		0.7918		0.7209		0.7808		0.8051		0.7611		0.7976		0.8277		0.789		0.817		0.777		0.7238		0.6771		0.8085		0.8098		0.7232		0.8126		0.8002		0.9683		0.8017		0.8373		0.8448		0.6881		1.0641		0.6721		0.7678		0.763		1.1807		0.9391		
99	1097379		0.7807		0.722		0.7791		0.7896		0.7513		0.8575		0.8415		0.7994		0.8135		0.7834		0.7204		0.6834		0.8148		0.8059		0.7321		0.8098		0.7977		0.9439		0.7652		0.8417		0.8333		0.7352		1.0758		0.6772		0.7699		0.7625		1.1155		0.9623		
100	1107379		0.7857		0.7254		0.7895		0.7964		0.7587		0.8508		0.8128		0.7871		0.8212		0.7902		0.7271		0.6897		0.8063		0.8142		0.7351		0.829		0.8206		0.9273		0.7622		0.8425		0.8379		0.7145		1.0675		0.6679		0.7712		0.7708		1.0573		0.9584		
101	1117380		0.7844		0.7354		0.7943		0.7812		0.7512		0.8606		0.814		0.7894		0.8177		0.7917		0.7459		0.6914		0.8154		0.805		0.7134		0.8425		0.8262		0.9119		0.7461		0.8424		0.8392		0.7207		1.0841		0.6585		0.7664		0.7668		1.0151		0.9265		
102	1127379		0.7841		0.738		0.7942		0.7885		0.7442		0.8555		0.7979		0.7832		0.8332		0.7878		0.7484		0.692		0.7988		0.8044		0.7179		0.8419		0.8383		0.8962		0.7294		0.8297		0.854		0.7073		1.0909		0.6539		0.7603		0.7435		0.997		0.9447		
103	1137379		0.7819		0.7313		0.7959		0.8076		0.7625		0.8568		0.7946		0.7764		0.8179		0.7857		0.7541		0.6899		0.7991		0.7972		0.7091		0.8224		0.8136		0.8821		0.723		0.8311		0.8427		0.7154		1.105		0.6609		0.7493		0.727		0.9829		0.9228		
104	1147378		0.7996		0.7214		0.7802		0.8116		0.7474		0.8781		0.7879		0.758		0.8272		0.7843		0.755		0.7012		0.7923		0.7817		0.7133		0.8397		0.7961		0.8702		0.7157		0.8256		0.8496		0.7015		1.0967		0.6499		0.7338		0.751		0.951		0.959		
105	1157380		0.7806		0.7268		0.7875		0.7958		0.7532		0.8573		0.7907		0.7526		0.8274		0.7766		0.7564		0.7023		0.7804		0.7792		0.7019		0.8506		0.7793		0.8432		0.7185		0.8298		0.8892		0.7411		1.0807		0.639		0.7315		0.7548		0.9756		0.9268		
106	1167378		0.7687		0.7308		0.7992		0.7941		0.7499		0.8618		0.7899		0.74		0.8225		0.7783		0.7557		0.709		0.794		0.7746		0.6954		0.8336		0.7831		0.8405		0.7193		0.8147		0.8498		0.7345		1.0813		0.6333		0.7433		0.7404		0.9526		0.9282		
107	1177377		0.7758		0.7297		0.7714		0.7924		0.7516		0.8783		0.792		0.7356		0.8192		0.782		0.7454		0.7079		0.7868		0.7732		0.7112		0.8433		0.7752		0.8325		0.7181		0.8263		0.8603		0.7377		1.0675		0.6318		0.7089		0.7329		0.9729		0.9691		
108	1187378		0.7873		0.7325		0.8085		0.8103		0.7523		0.8705		0.7857		0.7261		0.8337		0.7913		0.7434		0.708		0.7724		0.7675		0.712		0.8402		0.7713		0.8341		0.7169		0.8117		0.8513		0.718		1.0633		0.63		0.717		0.7292		0.9516		0.9503		
109	1197376		0.7886		0.7184		0.7901		0.7924		0.758		0.8886		0.7779		0.7124		0.8091		0.7625		0.7574		0.7049		0.7605		0.758		0.7021		0.846		0.7633		0.8195		0.7018		0.7993		0.8139		0.7293		1.0594		0.6211		0.7013		0.7255		0.916		0.9274		
110	1207377		0.7824		0.7211		0.7867		0.8076		0.7339		0.8708		0.7829		0.7102		0.8152		0.7696		0.7355		0.6912		0.7465		0.7444		0.7034		0.8535		0.7557		0.8225		0.6902		0.7863		0.8395		0.717		1.0384		0.6216		0.6928		0.694		0.9062		0.9059		
111	1217375		0.7808		0.7269		0.7826		0.805		0.7515		0.8708		0.7655		0.7038		0.8175		0.7747		0.7394		0.7019		0.7336		0.7306		0.7132		0.8402		0.7496		0.8273		0.6924		0.7929		0.8597		0.699		1.026		0.6255		0.6856		0.7127		0.912		0.9058		
