87	ThroughSeriesAnalysis4.0DATA	ngallego	29/05/2025	19:32:28	Number Of Statistical Points : 87	Number Of Statistical Regions : 28	XY Calibration : X*4.0 (um) : Y*4.0 (um)	Threshold Max : OFF	Threshold Min : -3.40282346638529E38	
Region			1		2		3		4		5		6		7		8		9		10		11		12		13		14		15		16		17		18		19		20		21		22		23		24		25		26		27		28
Description			_Background Rectangle (76,173 : 82,181) Colour(255) Label(1)		_Background Rectangle (76,140 : 81,146) Colour(255) Label(2)		_Background Rectangle (96,221 : 103,227) Colour(255) Label(3)		_Background Rectangle (206,179 : 210,188) Colour(255) Label(4)		_Background Rectangle (226,218 : 233,225) Colour(255) Label(5)		_Background Rectangle (246,227 : 253,234) Colour(255) Label(6)		_Background Rectangle (300,184 : 308,193) Colour(255) Label(7)		_Background Rectangle (277,134 : 282,138) Colour(255) Label(8)		_Background Rectangle (309,129 : 315,135) Colour(255) Label(9)		_Background Rectangle (209,100 : 217,106) Colour(255) Label(10)		_Background Rectangle (131,247 : 137,252) Colour(255) Label(11)		_Background Rectangle (165,205 : 172,209) Colour(255) Label(12)		_Background Rectangle (66,220 : 72,223) Colour(255) Label(13)		_Background Rectangle (145,140 : 150,150) Colour(255) Label(14)		_Background Rectangle (146,175 : 153,183) Colour(255) Label(15)		_Background Rectangle (274,183 : 281,190) Colour(255) Label(16)		_Background Rectangle (298,221 : 302,228) Colour(255) Label(17)		_Background Rectangle (246,185 : 253,190) Colour(255) Label(18)		_Background Rectangle (311,198 : 318,204) Colour(255) Label(19)		_Background Rectangle (206,146 : 211,150) Colour(255) Label(20)		_Background Rectangle (218,150 : 223,155) Colour(255) Label(21)		_Background Rectangle (166,225 : 174,230) Colour(255) Label(22)		_Background Rectangle (200,249 : 206,255) Colour(255) Label(23)		_Background Rectangle (82,247 : 89,256) Colour(255) Label(24)		_Background Rectangle (147,237 : 153,247) Colour(255) Label(25)		_Background Rectangle (265,191 : 272,198) Colour(255) Label(26)		_Background Rectangle (242,195 : 249,203) Colour(255) Label(27)		_Background Rectangle (270,228 : 274,236) Colour(255) Label(28)
Area (um*um)			768.0		480.0		672.0		576.0		784.0		784.0		1152.0		320.0		576.0		768.0		480.0		448.0		288.0		800.0		896.0		784.0		448.0		560.0		672.0		320.0		400.0		640.0		576.0		1008.0		960.0		784.0		896.0		512.0
Frame	Time (ms)		Mean Intensity 		Mean Intensity 		Mean Intensity 		Mean Intensity 		Mean Intensity 		Mean Intensity 		Mean Intensity 		Mean Intensity 		Mean Intensity 		Mean Intensity 		Mean Intensity 		Mean Intensity 		Mean Intensity 		Mean Intensity 		Mean Intensity 		Mean Intensity 		Mean Intensity 		Mean Intensity 		Mean Intensity 		Mean Intensity 		Mean Intensity 		Mean Intensity 		Mean Intensity 		Mean Intensity 		Mean Intensity 		Mean Intensity 		Mean Intensity 		Mean Intensity 		
0	807		0.8852		0.8905		0.8633		0.7667		0.8053		0.8332		0.8305		0.8643		0.8622		0.9117		0.8191		0.9112		0.7073		0.8746		0.8123		0.7444		0.7898		0.6725		0.78		0.8186		0.7853		0.7156		0.7661		0.686		0.8767		0.7827		0.7137		0.7664		
1	11093		0.8521		0.8814		0.8473		0.742		0.7338		0.7896		0.8313		0.8586		0.8519		0.8779		0.8231		0.8817		0.6948		0.8697		0.8077		0.7735		0.762		0.6651		0.7584		0.7956		0.7662		0.7074		0.7789		0.6973		0.8166		0.7787		0.6384		0.7575		
2	21071		0.9427		0.8996		0.8787		0.759		0.8115		0.8267		0.8344		0.8761		0.8693		0.8999		0.8618		0.9262		0.6921		0.8745		0.8272		0.7617		0.7779		0.6704		0.7684		0.8814		0.9212		0.7087		0.7365		0.7734		0.8876		0.7811		0.635		0.7845		
3	31072		0.9052		0.8965		0.8809		0.7652		0.7574		0.8248		0.84		0.8998		0.8627		0.8996		0.853		0.9192		0.7188		0.895		0.8153		0.7402		0.7869		0.6731		0.7791		0.8199		0.8074		0.7175		0.7719		0.7018		0.8791		0.7822		0.6575		0.7916		
4	41072		0.9176		0.919		0.8731		0.7803		0.7665		0.8228		0.846		0.8994		0.8865		0.9115		0.8749		0.9125		0.7099		0.8819		0.8328		0.7472		0.7733		0.6854		0.7905		0.8		0.7812		0.7455		0.7846		0.7194		0.8931		0.7943		0.6806		0.7882		
5	51070		0.885		0.9394		0.8784		0.7619		0.7718		0.8103		0.8421		0.8754		0.8737		0.8943		0.8527		0.9087		0.7081		0.8739		0.8183		0.766		0.796		0.6829		0.78		0.8692		0.8624		0.7127		0.7847		0.8141		0.8799		0.7892		0.7129		0.7816		
6	61070		0.9154		0.9441		0.8682		0.8273		0.7855		0.8058		0.8358		0.8914		0.8669		0.901		0.8456		0.9631		0.7091		0.8757		0.8229		0.7514		0.7882		0.6693		0.795		0.8485		0.7901		0.7466		0.7539		0.7038		0.8902		0.7956		0.6472		0.7821		
7	71070		0.9068		0.9133		0.8761		0.777		0.7431		0.8286		0.8437		0.899		0.8753		0.901		0.8265		0.9292		0.711		0.8873		0.7951		0.7457		0.7928		0.6821		0.79		0.8145		0.7733		0.7216		0.7531		0.7264		0.9093		0.7875		0.6442		0.7938		
8	81072		0.8798		0.9265		0.9102		0.7701		0.7685		0.8212		0.8283		0.8946		0.8608		0.9153		0.8542		0.8919		0.6872		0.8737		0.8116		0.7738		0.7826		0.6644		0.7768		0.8476		0.7856		0.732		0.7553		0.9658		0.8653		0.7799		0.6586		0.7975		
9	91068		0.9486		0.8933		0.8659		0.7852		0.7831		0.8081		0.8445		0.8737		0.8548		0.9029		0.8586		0.9208		0.7108		0.8759		0.8289		0.7653		0.8101		0.7049		0.7848		0.8604		0.85		0.7255		0.7585		0.7178		0.8698		0.7798		0.7149		0.8164		
10	134796		0.9787		0.9256		0.8566		0.7957		0.8166		0.8483		0.8612		0.9061		0.9045		0.919		0.8879		0.9249		0.5825		0.7002		0.6457		0.704		0.7201		0.6587		0.7279		0.8451		0.9162		0.5983		0.5995		0.7495		0.8888		0.8137		0.828		0.826		
11	144785		0.9248		0.9296		0.8677		0.7672		0.8123		0.8263		0.8513		0.9484		0.9019		0.9043		0.8541		0.941		0.5566		0.6938		0.6429		0.6867		0.6991		0.6648		0.7188		0.7948		0.8425		0.5948		0.6224		0.7438		0.8802		0.7991		0.842		0.8191		
12	154785		0.9046		0.9143		0.866		0.802		0.8015		0.815		0.8553		0.9382		0.8882		0.9117		0.8527		0.9151		0.5548		0.6977		0.642		0.674		0.7092		0.6738		0.7193		0.8267		0.8664		0.5864		0.6103		0.7315		0.8448		0.7883		0.8252		0.8033		
13	164785		0.9051		0.9505		0.8589		0.7893		0.8003		0.8143		0.8539		0.8758		0.9043		0.9038		0.8267		0.8965		0.57		0.7035		0.6614		0.6609		0.7131		0.6496		0.6961		0.8021		0.8287		0.5884		0.6266		0.7225		0.8552		0.7829		0.79		0.8037		
14	174786		0.9056		0.8942		0.8571		0.7817		0.8123		0.7945		0.8336		0.9197		0.9076		0.8896		0.8323		0.893		0.6053		0.6897		0.6527		0.6692		0.7		0.6483		0.6949		0.765		0.7814		0.5719		0.6085		0.7257		0.8515		0.7731		0.7922		0.7968		
15	184785		0.9116		0.9389		0.8839		0.7615		0.7907		0.8175		0.8434		0.9141		0.8913		0.8933		0.855		0.9181		0.5661		0.7094		0.6451		0.6708		0.7037		0.6493		0.7		0.7556		0.7721		0.5929		0.6079		0.7382		0.8559		0.7911		0.7649		0.797		
16	194785		0.9248		0.907		0.8427		0.7475		0.8033		0.8097		0.8476		0.9112		0.8998		0.9031		0.8672		0.9178		0.5799		0.7035		0.6442		0.6706		0.698		0.6409		0.6932		0.7673		0.7783		0.5871		0.6085		0.7339		0.8547		0.7627		0.7463		0.7947		
17	204784		0.8961		0.9075		0.8693		0.7401		0.7915		0.8034		0.8488		0.89		0.8689		0.9066		0.865		0.9307		0.5935		0.7002		0.6338		0.6726		0.6878		0.6336		0.7025		0.8038		0.8082		0.6124		0.624		0.7259		0.8812		0.8072		0.7488		0.7924		
18	262892		0.6586		0.6632		0.6043		0.6432		0.6667		0.5932		0.7405		0.6668		0.6588		0.668		0.5802		0.6725		0.8722		0.7471		0.69		0.7614		0.6727		0.8327		0.7703		0.8213		0.7196		0.7324		0.721		0.7152		0.6373		0.6727		0.6686		0.6867		
19	272875		0.6648		0.664		0.6047		0.6527		0.662		0.5866		0.7491		0.6761		0.6535		0.6753		0.5734		0.6559		0.8776		0.7587		0.6883		0.7666		0.6696		0.8319		0.7743		0.8195		0.7049		0.7576		0.7337		0.7182		0.6419		0.6698		0.6644		0.6889		
20	282875		0.6723		0.669		0.6079		0.851		0.6477		0.5817		0.7344		0.6763		0.7237		0.6772		0.7308		0.6706		0.8328		0.7714		0.6938		0.738		0.6853		0.8467		0.7651		0.8494		0.7211		0.7495		0.7254		0.7149		0.6481		0.6875		0.6662		0.6753		
21	292935		0.989		0.7596		0.9698		0.9615		0.6694		0.5889		0.7342		0.7017		0.7974		0.8046		1.0464		0.7249		0.8862		0.763		0.6823		0.7487		0.6941		0.847		0.777		0.8347		0.7102		0.7352		0.7191		0.72		0.6615		0.6772		0.671		0.6723		
22	302875		1.1217		1.2383		1.1262		1.0255		0.6653		0.5837		0.7418		0.6876		0.8747		0.8347		1.1322		0.8158		0.8924		0.7709		0.6973		0.7497		0.6837		0.8456		0.8093		0.8528		0.7416		0.7721		0.7373		0.7143		0.6647		0.6743		0.6804		0.6922		
23	312862		1.1729		1.3023		1.1001		1.0837		0.6879		0.5873		0.7411		0.6933		0.9002		0.8941		1.1664		0.8159		0.9011		0.7751		0.6952		0.7628		0.6815		0.863		0.8335		0.8348		0.7389		0.7593		0.7389		0.7222		0.6742		0.6742		0.6828		0.687		
24	322870		1.1978		1.3267		1.1209		1.1075		0.6697		0.5904		0.7381		0.6931		0.8982		0.9612		1.202		0.8246		0.9162		0.7849		0.7052		0.7532		0.6962		0.8564		0.8138		0.8723		0.7353		0.789		0.7426		0.7247		0.6845		0.6763		0.6732		0.6772		
25	332859		1.1956		1.2832		1.109		1.0951		0.6571		0.5801		0.7378		0.7037		0.9139		0.9568		1.2184		0.8169		0.9517		0.7817		0.6924		0.7695		0.688		0.8605		0.8226		0.8493		0.7348		0.7828		0.7444		0.7318		0.6777		0.679		0.6829		0.6979		
26	342859		1.1494		1.336		1.0796		1.1196		0.662		0.5893		0.7281		0.7068		0.9192		0.9181		1.1872		0.8325		0.8948		0.7792		0.699		0.7604		0.6957		0.8625		0.8049		0.8402		0.7524		0.7818		0.7491		0.7291		0.6828		0.6918		0.6772		0.6847		
27	352859		1.1825		1.3215		1.0615		1.094		0.6814		0.5846		0.7337		0.6959		0.8877		0.8992		1.1819		0.8109		0.9406		0.7802		0.6995		0.7622		0.6935		0.862		0.8104		0.8561		0.7371		0.7771		0.7545		0.7295		0.678		0.6867		0.6943		0.6983		
28	362858		1.1533		1.2661		1.0505		1.0937		0.6704		0.582		0.7348		0.6995		0.8571		0.8814		1.1616		0.8139		0.9096		0.7968		0.7046		0.7677		0.6866		0.8586		0.8035		0.8655		0.7357		0.7875		0.7368		0.7315		0.6732		0.6907		0.678		0.7017		
29	372858		1.1251		1.2495		1.0396		1.1167		0.6845		0.5959		0.7349		0.6982		0.8656		0.8783		1.1098		0.811		0.8769		0.7891		0.7154		0.7786		0.682		0.8588		0.8195		0.8652		0.7372		0.7736		0.7513		0.7465		0.6628		0.6833		0.6865		0.6932		
30	382860		1.1173		1.1893		1.0127		1.0948		0.6701		0.5901		0.737		0.6915		0.8456		0.8617		1.0786		0.7897		0.8943		0.7731		0.707		0.7863		0.697		0.8684		0.8157		0.8423		0.7486		0.8025		0.7603		0.7464		0.6698		0.6952		0.6728		0.7097		
31	392858		1.0759		1.2112		0.9846		1.066		0.6822		0.6209		0.7394		0.7212		0.8485		0.882		1.0693		0.8092		0.938		0.8126		0.7243		0.7955		0.731		0.8999		0.8521		0.8879		0.7626		0.8096		0.7914		0.784		0.721		0.7129		0.7085		0.7329		
32	402857		1.0218		1.0955		0.9643		1.0417		0.6664		0.5952		0.7376		0.6977		0.8182		0.8414		0.971		0.7701		0.9104		0.7854		0.7099		0.7684		0.7159		0.8503		0.8069		0.8428		0.7463		0.7698		0.7507		0.7459		0.6743		0.6986		0.6935		0.7049		
33	412858		0.9587		1.032		0.8618		0.9378		0.6742		0.5926		0.7298		0.6886		0.8105		0.8403		0.9563		0.7414		0.8875		0.7929		0.708		0.7744		0.6981		0.8458		0.7847		0.8418		0.7603		0.7789		0.7601		0.7287		0.6766		0.6972		0.7093		0.7044		
34	422857		0.8427		1.0506		0.7286		0.8922		0.6636		0.5933		0.7251		0.7137		0.7979		0.8323		0.8704		0.7124		0.8798		0.8013		0.7096		0.786		0.7148		0.8672		0.8174		0.8626		0.7389		0.7721		0.741		0.7449		0.6731		0.713		0.6816		0.6994		
35	432856		0.756		0.8027		0.6722		0.749		0.665		0.5971		0.7274		0.6894		0.7678		0.7739		0.7564		0.718		0.9368		0.7868		0.7284		0.7871		0.7189		0.8625		0.8431		0.8537		0.7213		0.7911		0.7415		0.7432		0.6745		0.7033		0.7039		0.7215		
36	442856		0.7446		0.7299		0.63		0.6703		0.672		0.5986		0.7327		0.6972		0.7241		0.7525		0.6545		0.719		0.9067		0.7771		0.7168		0.78		0.7061		0.88		0.8161		0.8243		0.7164		0.7728		0.7501		0.7526		0.6632		0.7202		0.6951		0.7178		
37	452856		0.714		0.7036		0.6297		0.6543		0.6682		0.5896		0.7269		0.6812		0.6952		0.7329		0.6248		0.6902		0.9025		0.7895		0.7217		0.7687		0.7197		0.8523		0.8172		0.8654		0.7223		0.7734		0.7585		0.7356		0.6726		0.6913		0.7001		0.7044		
38	462855		0.6875		0.6805		0.6274		0.6497		0.6803		0.5893		0.7375		0.6782		0.6967		0.7019		0.6123		0.6842		0.9081		0.7758		0.715		0.762		0.7099		0.8663		0.8071		0.8633		0.7362		0.7482		0.7603		0.7424		0.6718		0.7175		0.6923		0.7152		
39	472855		0.6887		0.6645		0.6193		0.6431		0.6833		0.5977		0.7284		0.6892		0.6839		0.7078		0.5882		0.6762		0.897		0.779		0.7103		0.7708		0.7099		0.8518		0.8358		0.8645		0.7377		0.7746		0.7427		0.7426		0.6711		0.7015		0.6991		0.7115		
40	482855		0.6707		0.6674		0.6177		0.6343		0.6721		0.5976		0.7381		0.7062		0.6859		0.7101		0.588		0.6771		0.9087		0.7938		0.7056		0.7781		0.715		0.8792		0.8331		0.8454		0.7288		0.7672		0.745		0.7392		0.6795		0.7158		0.7047		0.7178		
41	524490		0.9234		1.0673		0.9373		0.8545		0.8475		0.6512		1.1301		1.0758		0.9249		0.9081		0.862		0.9173		0.9441		0.9754		0.8635		0.8975		1.0024		0.9644		1.0176		0.9538		0.8644		0.8943		0.9192		1.2892		1.15		1.0894		0.9306		1.1009		
42	534478		0.712		0.746		0.7165		0.7088		0.8354		0.6306		1.0998		1.0062		0.7861		0.786		0.6328		0.7887		0.9174		0.9246		0.8215		0.8653		0.9706		0.9439		0.952		0.8811		0.8314		0.8482		0.8913		0.847		0.9073		0.8248		0.8903		1.0093		
43	544478		0.6867		0.6674		0.6753		0.6463		0.761		0.6229		0.9047		0.8261		0.7315		0.7699		0.6318		0.7619		0.92		0.9137		0.7845		0.8529		0.8371		0.9476		0.92		0.9034		0.8007		0.8413		0.8724		0.8243		0.8479		0.9319		0.7985		0.8012		
44	554477		0.6695		0.6772		0.6612		0.6491		0.7201		0.6279		0.853		0.736		0.7345		0.7449		0.5952		0.7502		0.8992		0.8944		0.7718		0.8128		0.7382		0.8994		0.8693		0.9064		0.8045		0.8237		0.8384		0.8077		0.8133		0.8237		0.7462		0.7396		
45	564477		0.6813		0.6533		0.6384		0.6481		0.7127		0.6196		0.8054		0.7276		0.735		0.7377		0.5825		0.7501		0.9015		0.9006		0.766		0.7953		0.751		0.8847		0.8583		0.9008		0.8027		0.7995		0.8213		0.7826		0.7648		0.7984		0.7212		0.7292		
46	574477		0.6857		0.6606		0.6408		0.6269		0.701		0.6189		0.8003		0.7389		0.7198		0.7273		0.5878		0.7144		0.8876		0.8989		0.7408		0.7972		0.7303		0.8781		0.8496		0.9266		0.7992		0.8065		0.8031		0.8043		0.7473		0.7577		0.7102		0.7251		
47	584477		0.6619		0.6669		0.6317		0.6402		0.7198		0.6273		0.7849		0.7532		0.7267		0.7439		0.5854		0.733		0.9124		0.8672		0.7426		0.7971		0.7471		0.8896		0.8433		0.8512		0.7898		0.827		0.8234		0.79		0.7342		0.7435		0.7149		0.7329		
48	594477		0.6631		0.6564		0.6284		0.627		0.7094		0.6165		0.7673		0.7373		0.7224		0.718		0.5865		0.7096		0.8978		0.8676		0.7428		0.7858		0.7389		0.8855		0.8259		0.8711		0.7761		0.7992		0.8001		0.7814		0.6984		0.729		0.7042		0.7313		
49	604476		0.6726		0.6687		0.6069		0.6122		0.7095		0.6143		0.7565		0.7338		0.7139		0.7148		0.5779		0.6929		0.9035		0.8501		0.7377		0.8004		0.7508		0.8746		0.8251		0.8465		0.7453		0.7872		0.7847		0.7682		0.6988		0.7223		0.7157		0.7351		
50	614476		0.6622		0.6281		0.6048		0.6172		0.6977		0.6109		0.7637		0.7256		0.7086		0.7209		0.567		0.6881		0.909		0.8398		0.7472		0.7902		0.7282		0.8918		0.8264		0.8803		0.758		0.7772		0.7849		0.7739		0.687		0.7311		0.707		0.7047		
51	624476		0.6738		0.6386		0.6058		0.62		0.7018		0.6106		0.751		0.7216		0.696		0.7071		0.5486		0.7012		0.9143		0.8125		0.7408		0.7872		0.7258		0.869		0.8307		0.8701		0.7437		0.7737		0.7794		0.7747		0.6958		0.7192		0.7064		0.7347		
52	634475		0.6683		0.6257		0.6084		0.6238		0.6925		0.6136		0.7573		0.734		0.6906		0.713		0.5578		0.6952		0.8981		0.8129		0.7364		0.7951		0.7096		0.8879		0.8226		0.8642		0.7421		0.7712		0.7799		0.7654		0.6863		0.7335		0.7126		0.7349		
53	644475		0.6714		0.655		0.5988		0.6184		0.6939		0.6088		0.7479		0.7283		0.6818		0.6939		0.5489		0.6892		0.8704		0.8007		0.7487		0.8084		0.7394		0.8648		0.8258		0.8503		0.7447		0.7895		0.7802		0.7592		0.6889		0.7357		0.7062		0.7239		
54	686208		1.0405		1.2106		1.0279		0.9893		0.8428		0.6623		1.0787		1.0584		1.0074		0.9563		1.0634		0.8861		0.9187		0.9646		0.8752		0.8966		1.0647		0.9444		0.975		0.9139		0.8305		0.8546		0.9145		0.8356		1.0138		1.0898		0.8528		1.0541		
55	696192		1.0327		1.1222		1.0017		0.8719		0.8545		0.6357		1.106		1.0692		0.8959		0.8744		1.0299		0.8339		0.9258		0.9324		0.8069		0.8133		0.9296		0.9152		0.958		0.9383		0.8342		0.8141		0.8651		0.8765		0.7998		0.8224		0.8099		0.8042		
56	706194		0.9614		1.103		0.9697		0.7211		0.7931		0.6295		1.0464		1.039		0.8513		0.837		0.9901		0.8175		0.8926		0.8909		0.7854		0.8701		0.8008		0.9159		0.9134		0.8863		0.7912		0.8102		0.8621		0.9075		0.876		0.8755		0.7885		0.7667		
57	716192		0.9752		1.0766		0.9214		0.667		0.7674		0.644		1.0537		0.9826		0.8579		0.8256		0.9454		0.8278		0.9066		0.8865		0.7671		0.8309		0.7806		0.9037		0.9205		0.9084		0.8104		0.8129		0.8399		0.7647		0.8763		0.8453		0.7766		0.7911		
58	726191		0.9544		1.0714		0.9057		0.7165		0.7676		0.6397		1.011		0.9452		0.8605		0.8253		0.9595		0.8111		0.8949		0.8856		0.7538		0.8695		0.7834		0.9082		0.9157		0.905		0.7928		0.8294		0.8107		0.7783		0.8461		0.9068		0.7496		0.8178		
59	736191		0.9435		1.0414		0.917		0.7348		0.7821		0.6348		0.9846		0.9165		0.8647		0.8168		0.974		0.7884		0.9068		0.8698		0.7507		0.8406		0.7843		0.9034		0.9226		0.916		0.7989		0.8081		0.8333		0.7619		0.8494		0.8282		0.7496		0.7665		
60	746191		0.9502		1.0524		0.8823		0.8092		0.7566		0.6427		0.9735		0.8212		0.8533		0.8268		0.9649		0.7756		0.9082		0.8613		0.7632		0.848		0.7816		0.9134		0.9107		0.893		0.7886		0.7962		0.8225		0.7864		0.8121		0.8716		0.7406		0.7877		
61	756190		0.9426		1.0751		0.8817		0.7672		0.7704		0.6359		0.9564		0.827		0.8814		0.8275		0.8963		0.7845		0.9301		0.8876		0.7503		0.8501		0.7869		0.9133		0.9492		0.9045		0.7861		0.8021		0.8228		0.7653		0.7954		0.8359		0.7456		0.7789		
62	766190		0.9263		1.0628		0.8693		0.8532		0.7707		0.6399		0.9509		0.7645		0.8598		0.819		0.9218		0.775		0.8878		0.8795		0.7273		0.8468		0.7712		0.9045		0.9062		0.8888		0.8087		0.8209		0.8275		0.7617		0.8139		0.8475		0.759		0.7903		
63	776190		0.8651		1.04		0.8553		0.7733		0.7476		0.6337		0.9545		0.7682		0.876		0.8214		0.9421		0.7843		0.8631		0.8967		0.7455		0.8355		0.8163		0.8942		0.9227		0.8944		0.7922		0.8004		0.834		0.7672		0.8149		0.8434		0.7637		0.8294		
64	786190		0.8361		1.0479		0.8259		0.7791		0.7633		0.6343		0.9595		0.777		0.869		0.8403		0.9036		0.7952		0.8777		0.8745		0.7608		0.8412		0.902		0.906		0.9118		0.8908		0.7787		0.8002		0.8271		0.7514		0.8016		0.8295		0.7488		0.7819		
65	796189		0.8378		1.0247		0.7826		0.7533		0.7521		0.6328		0.9783		0.7836		0.8691		0.8533		0.9177		0.7983		0.9242		0.8661		0.7535		0.8411		0.8285		0.909		0.9179		0.8972		0.8091		0.8238		0.8423		0.7927		0.819		0.8351		0.7623		0.8222		
66	806189		0.8495		1.0672		0.7722		0.7854		0.7619		0.631		0.9804		0.7941		0.8887		0.8271		0.8981		0.7794		0.8962		0.858		0.7389		0.8346		0.8615		0.883		0.9225		0.8756		0.8036		0.8301		0.8368		0.7519		0.8061		0.8126		0.7573		0.8224		
67	816190		0.8688		1.0096		0.7959		0.7797		0.7609		0.6402		0.9565		0.8355		0.8648		0.8227		0.9038		0.7995		0.8885		0.8653		0.7513		0.8531		0.9065		0.9147		0.9223		0.8838		0.7955		0.832		0.8139		0.8069		0.8138		0.8137		0.7594		0.7744		
68	826188		0.8961		1.033		0.7692		0.8399		0.7613		0.636		0.9671		0.8402		0.8555		0.8387		0.8792		0.7796		0.8956		0.8489		0.756		0.8353		0.9208		0.9001		0.8864		0.8848		0.8183		0.8258		0.8155		0.7704		0.7907		0.8059		0.7578		0.7717		
69	836188		0.8402		1.0237		0.7603		0.7879		0.7605		0.6374		0.9873		0.8367		0.8691		0.8494		0.8756		0.7653		0.8948		0.8533		0.7511		0.8466		0.8708		0.9104		0.9164		0.9049		0.7879		0.8114		0.8028		0.7723		0.8099		0.8092		0.7573		0.7508		
70	846188		0.9827		1.1891		0.924		0.9681		0.7544		0.6851		0.9751		0.9494		0.9118		0.8427		0.9955		0.8516		0.7714		0.795		0.7072		0.8181		0.8503		0.8768		0.8569		0.8708		0.7971		0.7486		0.7351		0.6935		0.7447		0.7929		0.7649		0.7545		
71	881019		1.1271		1.3439		1.0574		1.1317		0.767		0.6843		1.0061		1.0502		0.9156		0.8846		1.1533		0.9373		0.8479		0.8491		0.7379		0.8206		0.8091		0.8932		0.9006		0.8965		0.7898		0.8013		0.7876		0.8629		0.8302		0.8258		0.7897		0.8011		
72	890889		1.1176		1.3114		1.0466		1.1386		0.7617		0.7806		0.984		0.9976		0.9565		0.8809		1.1167		0.9118		0.8626		0.8391		0.7598		0.8139		0.8681		0.9089		0.8943		0.8477		0.795		0.7819		0.793		0.8329		0.8498		0.8211		0.8284		0.8447		
73	900889		1.0514		1.2078		1.0262		1.1183		0.7698		0.806		0.9567		0.9187		0.9243		0.8959		1.043		0.9		0.8576		0.8375		0.7537		0.8275		0.8331		0.8738		0.8829		0.8736		0.7881		0.8021		0.7799		0.9532		0.8581		0.8072		0.8284		0.8501		
74	910889		1.0317		1.1745		1.016		1.082		0.7702		0.8232		0.9329		0.8796		0.8943		0.8706		1.0479		0.8688		0.8711		0.8178		0.7592		0.8161		0.8584		0.9005		0.8864		0.865		0.7767		0.7894		0.7712		0.8991		0.8186		0.8165		0.8263		0.8308		
75	920889		1.0321		1.1617		0.9676		1.0195		0.767		0.8178		0.9179		0.8483		0.8884		0.8689		1.0578		0.8896		0.8481		0.8294		0.7643		0.8398		0.8439		0.8924		0.8863		0.8699		0.788		0.7933		0.7891		0.8667		0.8218		0.8083		0.8307		0.8474		
76	930888		1.0244		1.1728		0.9704		1.0148		0.7563		0.8132		0.9014		0.8341		0.884		0.8632		0.9824		0.8537		0.8371		0.8196		0.7619		0.8249		0.8599		0.8767		0.889		0.8568		0.7778		0.7882		0.7979		0.8572		0.8234		0.8284		0.8341		0.8666		
77	940888		1.0221		1.1281		0.9562		0.9937		0.7633		0.8101		0.8993		0.8314		0.8881		0.8654		1.0102		0.8505		0.8706		0.8248		0.7576		0.8276		0.8614		0.8955		0.8781		0.8568		0.7925		0.7789		0.769		0.8393		0.7995		0.8354		0.832		0.8554		
78	950888		1.017		1.1591		0.9579		0.9861		0.7557		0.82		0.901		0.8219		0.8738		0.8373		1.0138		0.8444		0.8665		0.8327		0.7455		0.8246		0.8793		0.8829		0.8821		0.8624		0.7852		0.7801		0.7841		0.8318		0.7965		0.833		0.8232		0.8474		
79	960887		1.0372		1.1688		0.9498		0.9678		0.7569		0.8522		0.925		0.8207		0.875		0.8468		1.0232		0.8481		0.8503		0.8374		0.7539		0.8359		0.9008		0.8933		0.9022		0.8358		0.8057		0.7877		0.7711		0.835		0.8235		0.8443		0.8133		0.8677		
80	970887		1.049		1.1298		0.9683		0.9964		0.7655		0.8229		0.9309		0.7978		0.8895		0.8512		1.0379		0.8444		0.8484		0.8424		0.7552		0.8388		0.8896		0.885		0.8949		0.868		0.7949		0.7972		0.7932		0.8233		0.8261		0.837		0.8234		0.849		
81	980887		1.032		1.1487		0.952		0.9861		0.7601		0.8237		0.9464		0.8002		0.8862		0.8514		1.0263		0.8666		0.8249		0.8373		0.7389		0.837		0.8833		0.8896		0.902		0.8825		0.7924		0.7935		0.7775		0.8334		0.8301		0.8525		0.7981		0.8581		
82	990886		1.0425		1.1477		0.9373		1.0025		0.7446		0.8209		0.965		0.8347		0.914		0.8573		1.0243		0.8713		0.8742		0.8446		0.7365		0.8285		0.8769		0.8751		0.9084		0.8768		0.7989		0.8015		0.7842		0.8335		0.8136		0.8316		0.8112		0.8751		
83	1000886		1.0545		1.1625		0.9316		0.9643		0.7503		0.8213		0.9741		0.8534		0.902		0.8756		1.0197		0.8673		0.8701		0.8488		0.734		0.8375		0.8826		0.888		0.9063		0.8435		0.806		0.7841		0.7868		0.8159		0.802		0.8437		0.809		0.8755		
84	1010886		1.0854		1.1647		0.966		0.9935		0.7555		0.8081		0.9817		0.9342		0.8933		0.8661		0.9996		0.8426		0.8306		0.8506		0.7466		0.8304		0.8949		0.9017		0.8825		0.8605		0.7935		0.8099		0.7553		0.8288		0.8108		0.8527		0.8104		0.8579		
85	1020886		1.0763		1.1875		0.9452		0.9549		0.7478		0.8116		0.9755		0.959		0.8859		0.8721		0.9942		0.8425		0.8719		0.8591		0.7415		0.8318		0.8803		0.8866		0.9178		0.8819		0.791		0.7895		0.7486		0.8371		0.7842		0.8494		0.8062		0.8338		
86	1030885		1.0701		1.1667		0.9551		0.9688		0.7483		0.8263		0.9823		0.9473		0.8746		0.8648		1.0176		0.847		0.8519		0.8439		0.7375		0.8429		0.8765		0.8899		0.8792		0.9117		0.7934		0.7823		0.7604		0.8267		0.7842		0.8472		0.8077		0.8564		
