113	ThroughSeriesAnalysis4.0DATA	ngallego	29/05/2025	19:20:35	Number Of Statistical Points : 113	Number Of Statistical Regions : 28	XY Calibration : X*4.0 (um) : Y*4.0 (um)	Threshold Max : OFF	Threshold Min : -3.40282346638529E38	
Region			29		30		31		32		33		34		35		36		37		38		39		40		41		42		43		44		45		46		47		48		49		50		51		52		53		54		55		56
Description			_Background Rectangle (244,151 : 252,163) Colour(255) Label(29)		_Background Rectangle (215,231 : 223,237) Colour(255) Label(30)		_Background Rectangle (216,246 : 224,251) Colour(255) Label(31)		_Background Rectangle (266,227 : 276,237) Colour(255) Label(32)		_Background Rectangle (238,243 : 245,249) Colour(255) Label(33)		_Background Rectangle (249,251 : 255,257) Colour(255) Label(34)		_Background Rectangle (167,220 : 174,226) Colour(255) Label(35)		_Background Rectangle (164,196 : 172,204) Colour(255) Label(36)		_Background Rectangle (141,220 : 148,227) Colour(255) Label(37)		_Background Rectangle (152,219 : 158,226) Colour(255) Label(38)		_Background Rectangle (146,238 : 155,246) Colour(255) Label(39)		_Background Rectangle (20,149 : 31,158) Colour(255) Label(40)		_Background Rectangle (93,146 : 101,154) Colour(255) Label(41)		_Background Rectangle (92,113 : 100,121) Colour(255) Label(42)		_Background Rectangle (140,110 : 149,119) Colour(255) Label(43)		_Background Rectangle (161,99 : 170,109) Colour(255) Label(44)		_Background Rectangle (265,119 : 271,126) Colour(255) Label(45)		_Background Rectangle (277,135 : 286,142) Colour(255) Label(46)		_Background Rectangle (287,143 : 294,150) Colour(255) Label(47)		_Background Rectangle (307,149 : 312,158) Colour(255) Label(48)		_Background Rectangle (317,144 : 324,150) Colour(255) Label(49)		_Background Rectangle (319,162 : 323,171) Colour(255) Label(50)		_Background Rectangle (323,167 : 328,173) Colour(255) Label(51)		_Background Rectangle (320,182 : 327,187) Colour(255) Label(52)		_Background Rectangle (322,189 : 327,195) Colour(255) Label(53)		_Background Rectangle (331,201 : 338,208) Colour(255) Label(54)		_Background Rectangle (276,177 : 283,184) Colour(255) Label(55)		_Background Rectangle (286,182 : 292,189) Colour(255) Label(56)
Area (um*um)			1536.0		768.0		640.0		1600.0		672.0		576.0		672.0		1024.0		784.0		672.0		1152.0		1584.0		1024.0		1024.0		1296.0		1440.0		672.0		1008.0		784.0		720.0		672.0		576.0		480.0		560.0		480.0		784.0		784.0		672.0
Frame	Time (ms)		Mean Intensity 		Mean Intensity 		Mean Intensity 		Mean Intensity 		Mean Intensity 		Mean Intensity 		Mean Intensity 		Mean Intensity 		Mean Intensity 		Mean Intensity 		Mean Intensity 		Mean Intensity 		Mean Intensity 		Mean Intensity 		Mean Intensity 		Mean Intensity 		Mean Intensity 		Mean Intensity 		Mean Intensity 		Mean Intensity 		Mean Intensity 		Mean Intensity 		Mean Intensity 		Mean Intensity 		Mean Intensity 		Mean Intensity 		Mean Intensity 		Mean Intensity 		
0	2163		0.9007		0.6404		0.8156		0.703		0.7617		0.7804		0.6441		0.7203		0.4961		0.5275		0.497		0.9794		0.8549		0.881		0.7954		0.7838		0.9012		0.7832		0.8105		0.8582		0.6851		0.6428		0.6637		0.8729		0.8861		0.8032		0.7417		0.7355		
1	14170		0.6279		0.654		0.7476		0.6973		0.7573		0.7908		0.618		0.7128		0.4935		0.5236		0.4969		0.9778		0.8546		0.8774		0.7886		0.7697		0.8722		0.7683		0.7809		0.8923		0.7119		0.6575		0.6761		0.8896		0.887		0.8025		0.7091		0.7097		
2	21600		0.6204		0.6183		0.8087		0.7042		0.8083		0.8309		0.5957		0.7013		0.4914		0.5346		0.5049		0.9736		0.8565		0.8279		0.7942		0.9127		0.8958		0.7414		0.7735		0.8216		0.7469		0.6427		0.6698		0.8943		0.9245		0.8535		0.7536		0.7417		
3	31600		0.6222		0.6174		0.7506		0.6989		0.7711		0.8237		0.6236		0.7409		0.4979		0.5263		0.4971		0.994		0.851		0.8339		0.7928		0.7804		0.8835		0.7591		0.7869		0.8685		0.689		0.6544		0.6716		0.8519		0.8611		0.8124		0.7312		0.7151		
4	41599		0.634		0.6362		0.7345		0.6898		0.8178		0.8457		0.5966		0.7194		0.4938		0.5178		0.4975		0.9697		0.8463		0.8487		0.7927		0.883		0.9322		0.7583		0.7723		0.8631		0.7135		0.6531		0.6732		0.8665		0.8613		0.8609		0.7269		0.7145		
5	51612		0.7563		0.6471		0.6979		0.6818		0.7641		0.7893		0.6094		0.7219		0.4836		0.5174		0.49		0.942		0.8422		0.8274		0.7834		0.7831		0.8867		0.7503		0.7633		0.8338		0.7112		0.6497		0.6577		0.8213		0.8446		0.773		0.7049		0.7037		
6	61613		0.7193		0.6363		0.7437		0.6896		0.7219		0.7663		0.609		0.7099		0.4877		0.5263		0.4882		0.9562		0.8352		0.8371		0.7895		0.8248		0.895		0.7263		0.7451		0.8186		0.7027		0.6521		0.6665		0.8514		0.8858		0.822		0.7085		0.7046		
7	71622		0.6248		0.6401		0.7538		0.6832		0.7418		0.7839		0.5941		0.7022		0.4843		0.5177		0.4801		0.9328		0.8376		0.8187		0.7851		0.7702		0.8267		0.7223		0.7496		0.8496		0.6879		0.6459		0.6649		0.8017		0.8024		0.7767		0.7096		0.6889		
8	81702		0.6187		0.638		0.7282		0.6737		0.7362		0.7721		0.5888		0.6907		0.4871		0.5301		0.4878		0.9845		0.8406		0.8149		0.7769		0.7805		0.8644		0.6949		0.7405		0.8346		0.706		0.6465		0.6567		0.8452		0.8482		0.7945		0.6954		0.6917		
9	91628		0.617		0.6096		0.7558		0.6837		0.7208		0.7691		0.6031		0.7254		0.486		0.5144		0.4826		0.9443		0.8254		0.8293		0.7767		0.8727		0.8631		0.7233		0.7562		0.7893		0.6381		0.6403		0.6619		0.8184		0.8367		0.7849		0.6979		0.6907		
10	101626		0.6407		0.5982		0.7211		0.6749		0.7377		0.7921		0.6058		0.7126		0.4974		0.5309		0.4906		0.956		0.8367		0.8203		0.7776		0.7518		0.8431		0.7546		0.7679		0.8335		0.6581		0.637		0.6656		0.8231		0.8149		0.8492		0.7092		0.7057		
11	111626		0.6543		0.597		0.7156		0.6749		0.7591		0.8057		0.588		0.6887		0.4879		0.5161		0.4848		0.9362		0.8228		0.7936		0.7739		0.7735		0.8446		0.7388		0.7589		0.8321		0.673		0.6435		0.6599		0.7877		0.786		0.8245		0.6927		0.681		
12	121628		0.8883		0.6085		0.6784		0.6685		0.7631		0.7869		0.5829		0.7018		0.4957		0.5204		0.482		0.9264		0.8294		0.8103		0.7703		0.7807		0.8735		0.7728		0.7739		0.7569		0.6643		0.641		0.669		0.8323		0.818		0.7905		0.6859		0.6934		
13	160156		0.6116		0.5943		0.7425		0.6729		0.6753		0.7181		0.6278		0.6942		0.4929		0.518		0.4836		0.8321		0.8232		0.7395		0.7619		0.7025		0.7456		0.6654		0.7171		0.7136		0.6412		0.6474		0.6681		0.7722		0.7737		0.6841		0.6863		0.6725		
14	170141		0.608		0.5573		0.5915		0.6551		0.6323		0.7008		0.5822		0.6498		0.4891		0.5177		0.4796		0.8174		0.8072		0.7128		0.7587		0.7017		0.6992		0.6463		0.6869		0.6836		0.5966		0.6327		0.663		0.7017		0.6838		0.6636		0.6577		0.6562		
15	180140		0.6007		0.5709		0.5867		0.6582		0.6195		0.6893		0.5753		0.6403		0.4945		0.5208		0.4785		0.8184		0.8127		0.7395		0.7501		0.6969		0.6788		0.6508		0.6928		0.6521		0.59		0.633		0.6551		0.6758		0.6606		0.6688		0.662		0.6532		
16	190140		0.6042		0.5664		0.6107		0.6613		0.6293		0.6902		0.5606		0.6424		0.4931		0.5188		0.4739		0.81		0.8083		0.7697		0.7494		0.6941		0.662		0.6642		0.6895		0.6475		0.584		0.6222		0.6658		0.6741		0.6452		0.636		0.6551		0.6527		
17	200140		0.6082		0.5798		0.6269		0.6571		0.6266		0.706		0.5652		0.6475		0.4901		0.5155		0.4813		0.8418		0.8213		0.731		0.7537		0.6818		0.6947		0.6587		0.6944		0.66		0.589		0.6428		0.6625		0.6693		0.6499		0.7256		0.6743		0.6648		
18	210139		0.6069		0.5717		0.685		0.6616		0.6538		0.7171		0.5739		0.648		0.4838		0.5204		0.4858		0.8317		0.8128		0.7773		0.7495		0.7031		0.7997		0.6698		0.697		0.6995		0.5965		0.6419		0.6702		0.6964		0.6895		0.7702		0.6849		0.6693		
19	220139		0.6108		0.5758		0.6958		0.659		0.6654		0.6971		0.5641		0.6426		0.483		0.5182		0.4841		0.8247		0.8307		0.7846		0.7651		0.7803		0.8022		0.6889		0.7253		0.9429		0.5981		0.6487		0.6668		0.7391		0.7257		0.6913		0.6687		0.6698		
20	230139		0.6268		0.5863		0.7118		0.6717		0.7232		0.7613		0.5694		0.6485		0.4902		0.5208		0.4837		0.8664		0.8249		0.781		0.7663		0.7793		0.8224		0.7147		0.7364		0.8625		0.6725		0.653		0.678		0.8233		0.8489		0.6769		0.6803		0.683		
21	240140		0.6904		0.6029		0.7022		0.6673		0.7859		0.8126		0.5835		0.7235		0.4926		0.5239		0.4877		0.8817		0.8201		0.7515		0.7557		0.7037		0.8053		0.7342		0.7559		0.7375		0.7042		0.65		0.6666		0.925		0.9442		0.972		0.7013		0.6979		
22	250139		0.7381		0.612		0.7569		0.6761		0.794		0.8478		0.5714		0.6956		0.4908		0.5181		0.4865		0.8766		0.8171		0.7869		0.7722		0.6903		0.8349		0.7643		0.7878		0.717		0.6655		0.6428		0.6714		0.8558		0.8437		0.9419		0.7196		0.7051		
23	260138		0.6234		0.6313		0.6847		0.6801		0.7566		0.7826		0.5862		0.6781		0.4924		0.5319		0.4812		0.8807		0.8144		0.7605		0.7619		0.6879		0.8322		0.7298		0.7559		0.9271		0.7128		0.6547		0.6703		0.7955		0.8004		0.7645		0.7157		0.7021		
24	270139		0.6071		0.6754		0.6786		0.6838		0.7638		0.7906		0.5694		0.6782		0.4912		0.5314		0.4836		0.8912		0.8104		0.7903		0.7712		0.7427		0.8067		0.7153		0.7495		0.9277		0.6663		0.6497		0.6709		0.8132		0.8132		0.7168		0.7106		0.7086		
25	280138		0.6074		0.6396		0.7168		0.685		0.697		0.7295		0.574		0.6572		0.491		0.5185		0.4902		0.8982		0.8168		0.768		0.767		0.7948		0.863		0.7347		0.7614		0.7308		0.6098		0.6376		0.67		0.8153		0.8171		0.757		0.6975		0.6889		
26	290136		0.6121		0.6159		0.6891		0.6771		0.6854		0.7385		0.5793		0.6543		0.5015		0.5234		0.4892		0.8856		0.8243		0.7771		0.7842		0.7085		0.8324		0.7049		0.7427		0.6814		0.6155		0.6334		0.6506		0.7876		0.782		0.7328		0.6945		0.6925		
27	300138		0.6176		0.5986		0.6769		0.67		0.6607		0.7118		0.5803		0.6573		0.492		0.5252		0.489		0.8744		0.815		0.7629		0.7795		0.6895		0.8166		0.6884		0.7237		0.6781		0.6112		0.6182		0.6627		0.721		0.6959		0.7005		0.6893		0.6865		
28	310138		0.6199		0.593		0.6561		0.6636		0.6678		0.7069		0.5817		0.6557		0.4887		0.5248		0.4838		0.8662		0.8172		0.7746		0.7694		0.697		0.785		0.693		0.7144		0.6742		0.6036		0.6291		0.6557		0.6815		0.6618		0.6525		0.6814		0.6734		
29	320135		0.6178		0.583		0.6574		0.6717		0.6768		0.7088		0.5684		0.65		0.485		0.5185		0.4798		0.8658		0.8274		0.7647		0.7654		0.6994		0.8151		0.6834		0.706		0.7349		0.5957		0.6309		0.6549		0.6754		0.6463		0.6624		0.6661		0.6504		
30	330135		0.6027		0.5734		0.6249		0.6712		0.6447		0.7057		0.5638		0.644		0.4889		0.518		0.4814		0.8598		0.8214		0.7417		0.7632		0.8655		0.8293		0.6809		0.7064		0.8845		0.5975		0.6484		0.6619		0.6762		0.6661		0.6541		0.6616		0.6406		
31	340148		0.6029		0.5623		0.6368		0.6702		0.6304		0.6884		0.5744		0.6443		0.49		0.5243		0.4869		0.8501		0.8223		0.7515		0.7654		0.7488		0.7839		0.6815		0.7122		0.8243		0.6021		0.639		0.6635		0.6783		0.6521		0.6675		0.6555		0.6393		
32	350135		0.6064		0.565		0.6355		0.6622		0.641		0.6777		0.5725		0.6473		0.4898		0.5244		0.4916		0.8537		0.8117		0.7551		0.7682		0.6865		0.7299		0.6632		0.7049		0.7066		0.6022		0.6354		0.6566		0.6587		0.6365		0.6565		0.6655		0.6495		
33	360135		0.6048		0.5703		0.6002		0.6583		0.6217		0.6864		0.5714		0.6501		0.4935		0.5189		0.4884		0.8495		0.8169		0.7468		0.7598		0.6849		0.7371		0.6681		0.7053		0.6745		0.5872		0.6183		0.655		0.6514		0.626		0.6483		0.6617		0.6663		
34	370136		0.6057		0.5653		0.6261		0.6637		0.6219		0.6793		0.5682		0.6395		0.49		0.515		0.4847		0.8428		0.8096		0.7428		0.7482		0.6877		0.7678		0.664		0.6945		0.6561		0.5894		0.6325		0.6654		0.6517		0.642		0.7203		0.6654		0.6546		
35	380135		0.6055		0.5727		0.6804		0.6643		0.622		0.6915		0.5788		0.6521		0.4866		0.5184		0.4866		0.8344		0.8057		0.7144		0.7433		0.6971		0.7527		0.671		0.6978		0.6561		0.5894		0.6336		0.6601		0.6481		0.6345		0.6714		0.6648		0.6408		
36	390134		0.6054		0.576		0.6389		0.6566		0.6224		0.6981		0.5778		0.6414		0.4915		0.5232		0.4854		0.845		0.8045		0.7477		0.7527		0.6968		0.7313		0.6762		0.7063		0.6686		0.587		0.6315		0.6629		0.6532		0.6331		0.6717		0.6543		0.6461		
37	400135		0.6083		0.5688		0.6096		0.6544		0.6383		0.6741		0.5733		0.6413		0.484		0.5218		0.4781		0.8391		0.8161		0.7394		0.7508		0.6884		0.685		0.6697		0.7154		0.6592		0.5892		0.6397		0.6606		0.6521		0.6341		0.6387		0.6602		0.6526		
38	410134		0.6093		0.5807		0.6307		0.6627		0.6389		0.6946		0.5644		0.645		0.485		0.5247		0.4864		0.8329		0.7998		0.7477		0.7446		0.6976		0.7212		0.6711		0.7053		0.6652		0.5805		0.6313		0.6623		0.6569		0.6401		0.6661		0.6752		0.6593		
39	420133		0.6051		0.5692		0.651		0.6578		0.6479		0.701		0.5851		0.6464		0.4852		0.5129		0.4908		0.8352		0.8053		0.7057		0.7615		0.6852		0.7379		0.6787		0.7125		0.6775		0.5793		0.63		0.6642		0.6731		0.6377		0.6689		0.6582		0.6522		
40	430132		0.6095		0.5759		0.6125		0.6608		0.6351		0.6834		0.5704		0.6442		0.4897		0.5212		0.4866		0.8267		0.8161		0.7019		0.7424		0.6875		0.8047		0.6618		0.7093		0.684		0.5911		0.6397		0.6678		0.6589		0.64		0.6598		0.6624		0.6564		
41	440132		0.6046		0.5675		0.6043		0.6609		0.6387		0.6777		0.5715		0.6415		0.4832		0.5144		0.4876		0.8091		0.7899		0.73		0.7421		0.6873		0.7049		0.6737		0.697		0.6952		0.5914		0.647		0.6697		0.6504		0.6337		0.6679		0.6584		0.6417		
42	450135		0.6006		0.5793		0.5963		0.6581		0.6352		0.7052		0.5824		0.6431		0.4931		0.5195		0.4876		0.7979		0.8012		0.7691		0.7603		0.6866		0.769		0.687		0.707		0.7187		0.587		0.6411		0.6645		0.6585		0.6477		0.6556		0.6637		0.6506		
43	460142		0.6027		0.5742		0.6025		0.6635		0.654		0.6952		0.564		0.6408		0.4892		0.5243		0.4888		0.8113		0.8007		0.7177		0.7494		0.6959		0.7444		0.6826		0.7141		0.7686		0.596		0.6491		0.6675		0.6581		0.6326		0.6524		0.664		0.6648		
44	470132		0.6045		0.5716		0.5863		0.6558		0.6374		0.6974		0.5663		0.6404		0.4937		0.5267		0.4874		0.8007		0.7999		0.7052		0.7423		0.695		0.7376		0.6733		0.7113		0.8598		0.5905		0.6486		0.6674		0.6584		0.6351		0.6578		0.6687		0.668		
45	480132		1.1493		1.3005		1.1447		1.2946		1.2552		1.2499		1.1063		0.9726		0.6709		0.7265		0.7022		1.1874		0.9359		0.9817		0.9455		1.0474		1.1129		1.286		1.2848		1.363		1.3017		1.2406		1.2003		1.3429		1.4376		1.3079		1.1231		1.1505		
46	520811		1.325		1.4504		1.2647		1.42		1.3621		1.3397		1.3177		1.1108		0.7501		0.8059		0.7672		1.1498		0.8957		0.9852		0.9414		1.1673		1.1823		1.5006		1.4573		1.5309		1.6591		1.2635		1.2188		1.5147		1.6662		1.3943		1.2607		1.2449		
47	530770		1.1231		1.1438		1.0207		1.1451		1.0825		1.1124		1.1019		1.0011		0.7471		0.7637		0.7523		0.9407		0.8383		0.8659		0.8068		1.0811		1.1851		1.3381		1.3382		1.5293		1.3217		0.9287		0.8795		1.2756		1.3706		1.1769		1.1723		1.1438		
48	540769		1.0027		1.0143		0.9003		1.0744		0.9408		0.977		0.9394		0.936		0.697		0.7308		0.7171		0.8616		0.8128		0.8481		0.7747		1.0191		1.1939		1.358		1.364		1.5999		1.2005		0.8251		0.8001		1.1417		1.1929		1.0846		1.2355		1.185		
49	550769		0.964		0.9433		0.8543		1.0505		0.9435		0.9768		0.8973		0.929		0.6605		0.6939		0.6897		0.8406		0.8008		0.8398		0.7642		0.9836		1.2652		1.4723		1.4621		1.6546		1.2321		0.8231		0.814		1.0984		1.1317		1.1281		1.3289		1.2794		
50	560769		0.9949		0.9422		0.9004		1.0598		0.9675		1.0507		0.8987		0.9304		0.6577		0.6961		0.6673		0.856		0.8222		0.8496		0.7863		0.9981		1.3743		1.5805		1.519		1.6903		1.1972		0.8723		0.8548		1.136		1.1788		1.2375		1.4131		1.4073		
51	570769		0.9864		0.9272		0.9394		1.0321		0.994		1.0117		0.889		0.9211		0.6576		0.6837		0.6394		0.8906		0.8443		0.859		0.8069		0.9941		1.3673		1.4846		1.4371		1.611		1.1729		0.8361		0.8224		1.1515		1.1874		1.2828		1.3279		1.311		
52	580768		0.9722		0.9035		0.9756		1.042		0.9778		1.0312		0.8548		0.8906		0.6476		0.6678		0.6049		0.9395		0.8705		0.8622		0.8174		0.9605		1.3558		1.2919		1.2837		1.5018		1.2798		0.8222		0.8033		1.1436		1.1979		1.2576		1.1498		1.1527		
53	590769		0.9348		0.882		0.9905		1.0231		0.9656		1.0186		0.8314		0.8808		0.6313		0.6588		0.5833		0.9801		0.8878		0.8607		0.8313		0.941		1.3155		1.0072		1.0361		1.3899		1.1729		0.8051		0.795		1.1292		1.1875		1.1701		0.9689		0.9984		
54	600792		0.9074		0.8569		0.9949		0.9942		0.954		1.0083		0.8292		0.853		0.6119		0.64		0.5782		1.0008		0.9047		0.855		0.8368		0.9131		1.2447		0.9049		0.9086		1.2722		1.1353		0.8038		0.7985		1.1037		1.1711		1.0961		0.8775		0.8857		
55	610777		0.8888		0.8477		0.9499		0.955		0.9345		0.9923		0.8064		0.8414		0.5984		0.6329		0.5614		1.0231		0.9024		0.8458		0.839		0.9067		1.1941		0.8758		0.8885		1.1195		1.1785		0.8109		0.8121		1.0893		1.1404		1.0344		0.8165		0.8411		
56	620788		0.8738		0.8123		0.9198		0.925		0.9155		0.9864		0.7902		0.8397		0.5948		0.6299		0.5568		1.0294		0.9268		0.8554		0.8459		0.8967		1.1353		0.8237		0.8501		0.9904		1.1474		0.7956		0.8141		1.0583		1.1163		0.9886		0.8073		0.8056		
57	630767		0.862		0.8132		0.9006		0.9185		0.8965		0.9319		0.7739		0.8437		0.5896		0.6185		0.5472		1.0318		0.9257		0.8442		0.8351		0.8875		1.0778		0.8247		0.8446		0.9118		1.0377		0.8074		0.8083		1.0522		1.0971		0.9415		0.7864		0.8047		
58	640766		0.8579		0.8037		0.886		0.9014		0.8696		0.9191		0.7612		0.8272		0.5746		0.6091		0.5413		1.0281		0.9307		0.8663		0.8462		0.8741		1.0321		0.806		0.8316		0.8934		1.0386		0.7764		0.785		0.9967		1.0447		0.9249		0.7861		0.794		
59	650766		0.8489		0.7966		0.8661		0.882		0.8467		0.897		0.7466		0.8038		0.5783		0.6097		0.5495		1.0178		0.9278		0.8419		0.832		0.8654		0.9908		0.8009		0.8293		0.8402		1.0702		0.7865		0.7871		0.9941		1.0317		0.905		0.7792		0.7913		
60	660765		0.8316		0.7785		0.8407		0.8909		0.8562		0.8992		0.7424		0.8058		0.5688		0.6075		0.5407		1.0314		0.9156		0.8452		0.8385		0.87		0.9646		0.7945		0.8233		0.8354		1.0809		0.7447		0.7592		0.9711		1.0168		0.887		0.7841		0.784		
61	670765		0.8403		0.7708		0.8219		0.8752		0.8345		0.8902		0.7449		0.8013		0.5693		0.6011		0.5329		1.0228		0.9126		0.8547		0.8357		0.8505		0.9381		0.7957		0.823		0.8321		1.0318		0.7551		0.7664		0.9513		0.9862		0.9013		0.7837		0.7662		
62	680765		0.829		0.7658		0.803		0.8794		0.8214		0.893		0.757		0.7899		0.5653		0.6004		0.5364		1.0201		0.9133		0.8462		0.8328		0.8591		0.9409		0.786		0.8283		0.8382		0.9335		0.7269		0.7501		0.9438		0.977		0.8958		0.7759		0.7905		
63	690766		0.8371		0.7539		0.8022		0.8726		0.8359		0.8739		0.7769		0.8018		0.5648		0.5971		0.5398		1.0288		0.9071		0.8474		0.8356		0.8504		0.905		0.8013		0.8347		0.8389		0.9062		0.7318		0.7514		0.9245		0.9662		0.8841		0.7682		0.7633		
64	700765		0.8371		0.7501		0.8079		0.8573		0.8404		0.891		0.7621		0.7848		0.5613		0.5991		0.5281		1.0082		0.8878		0.837		0.8364		0.8449		0.911		0.7915		0.8289		0.8355		0.8858		0.7225		0.7283		0.9375		0.9433		0.8885		0.7723		0.7579		
65	710765		0.8298		0.7557		0.8158		0.8637		0.824		0.8771		0.7584		0.7835		0.5635		0.5892		0.537		0.9974		0.8865		0.8412		0.8303		0.8386		0.8871		0.7909		0.8265		0.8306		0.8943		0.7057		0.7205		0.9256		0.9577		0.8878		0.7748		0.763		
66	720765		0.8368		0.751		0.8148		0.8537		0.8255		0.874		0.7313		0.7836		0.5511		0.5845		0.5362		0.9848		0.8983		0.8449		0.8217		0.8413		0.8834		0.8014		0.8207		0.8405		0.866		0.7113		0.7181		0.9159		0.9423		0.8901		0.7777		0.7623		
67	730764		0.8298		0.7531		0.7958		0.8695		0.8196		0.8548		0.7333		0.7891		0.5562		0.5808		0.5325		0.9785		0.8616		0.8422		0.8166		0.8445		0.8739		0.8016		0.8312		0.8467		0.8573		0.7164		0.7272		0.9199		0.9566		0.896		0.768		0.7713		
68	740763		0.8293		0.7464		0.7878		0.8605		0.814		0.8612		0.7408		0.7756		0.5489		0.5855		0.5212		0.9942		0.8603		0.8268		0.8142		0.8339		0.8813		0.806		0.8133		0.8351		0.8303		0.7119		0.7448		0.9174		0.948		0.8924		0.7683		0.7668		
69	750763		0.8254		0.7531		0.7862		0.8559		0.814		0.8687		0.7327		0.7834		0.5429		0.577		0.5173		0.9777		0.8838		0.8217		0.8201		0.842		0.8864		0.8027		0.8154		0.8337		0.8227		0.6982		0.7177		0.9074		0.9499		0.8955		0.7775		0.7714		
70	760765		0.8214		0.7576		0.8112		0.8626		0.8035		0.8758		0.7286		0.7791		0.5384		0.5776		0.5184		0.989		0.8731		0.8248		0.8143		0.8281		0.8887		0.7947		0.8215		0.8513		0.8372		0.6912		0.7057		0.9092		0.9405		0.8836		0.7672		0.7593		
71	770763		0.8211		0.7517		0.7986		0.8702		0.8099		0.8887		0.7341		0.7761		0.5388		0.5702		0.5221		0.9738		0.8626		0.8297		0.8103		0.8289		0.8738		0.8034		0.8266		0.8398		0.8162		0.6895		0.7057		0.9101		0.9649		0.8827		0.7656		0.7594		
72	780762		0.8193		0.7502		0.7999		0.864		0.8009		0.8703		0.7372		0.7833		0.5311		0.5648		0.518		0.9766		0.8683		0.8344		0.8055		0.8322		0.8648		0.7873		0.8141		0.8413		0.8014		0.6827		0.7052		0.9119		0.9539		0.8851		0.7568		0.7494		
73	832289		0.8227		0.7501		0.7868		0.9192		0.7991		0.8482		0.7489		0.7875		0.6327		0.6704		0.5999		0.9701		0.8418		0.8223		0.8127		0.8173		0.8784		0.7895		0.8293		0.8575		0.7776		0.6946		0.6931		0.9302		0.9555		0.8979		0.7735		0.7808		
74	842277		0.8076		0.7494		0.7753		0.8475		0.7785		0.8366		0.7113		0.7786		0.6256		0.6459		0.5877		0.9411		0.8422		0.8111		0.7973		0.812		0.8627		0.7719		0.8021		0.8314		0.7729		0.6908		0.6935		0.9252		0.9456		0.8842		0.7504		0.7598		
75	852276		0.7926		0.7451		0.7616		0.8375		0.7942		0.8475		0.7078		0.7652		0.608		0.6301		0.5644		0.9345		0.8229		0.8006		0.7881		0.7954		0.8544		0.7693		0.7742		0.821		0.767		0.6679		0.6865		0.908		0.9508		0.8811		0.7513		0.7478		
76	862276		0.7913		0.7382		0.7747		0.8493		0.7874		0.8095		0.7414		0.7585		0.5983		0.6204		0.5543		0.9426		0.823		0.8042		0.7872		0.7849		0.8404		0.7966		0.8166		0.8273		0.7541		0.673		0.6888		0.9099		0.9164		0.874		0.7554		0.7385		
77	872276		0.7907		0.7258		0.7883		0.8634		0.7774		0.8293		0.7048		0.7825		0.5982		0.6107		0.5521		0.9396		0.8198		0.8035		0.7922		0.786		0.8623		0.7861		0.806		0.8375		0.7379		0.6742		0.6851		0.9045		0.9401		0.8697		0.7488		0.7563		
78	882276		0.798		0.7371		0.786		0.857		0.7819		0.8467		0.7153		0.7723		0.5813		0.6077		0.5476		0.9372		0.8198		0.803		0.7735		0.7829		0.8574		0.798		0.8192		0.8351		0.748		0.6643		0.6739		0.9157		0.9491		0.8514		0.7503		0.7465		
79	892274		0.7927		0.7318		0.7715		0.8518		0.7651		0.8456		0.7262		0.7641		0.5832		0.6201		0.5417		0.9475		0.8195		0.8051		0.7795		0.7887		0.8494		0.8016		0.8217		0.8364		0.7522		0.6819		0.6772		0.954		0.9403		0.8637		0.75		0.7467		
80	902274		0.791		0.7205		0.7867		0.8522		0.7714		0.8336		0.7185		0.7561		0.5724		0.6106		0.5478		0.9402		0.8136		0.8123		0.7978		0.7861		0.865		0.8058		0.8205		0.8401		0.7492		0.6682		0.6758		0.9181		0.9377		0.8544		0.7611		0.7351		
81	912275		0.7909		0.7332		0.8033		0.8478		0.7944		0.8341		0.7455		0.7565		0.5748		0.5989		0.5317		0.9336		0.8193		0.8237		0.7834		0.7858		0.8649		0.7999		0.809		0.8412		0.7562		0.6684		0.6803		0.9346		0.9638		0.8624		0.7633		0.7563		
82	922274		0.7887		0.7212		0.7935		0.8493		0.7609		0.8182		0.7057		0.7593		0.5722		0.6022		0.5276		0.9454		0.8097		0.7878		0.7747		0.7805		0.8513		0.7926		0.8173		0.8535		0.7379		0.6618		0.6692		0.9293		0.942		0.8391		0.7574		0.7466		
83	932273		0.7849		0.7393		0.7858		0.8602		0.7738		0.8142		0.7271		0.7796		0.564		0.6085		0.5293		0.9372		0.8155		0.7825		0.7836		0.7857		0.8741		0.8057		0.8063		0.8428		0.7411		0.661		0.672		0.9285		0.9519		0.8726		0.7626		0.7524		
84	942274		0.7917		0.7246		0.8037		0.8624		0.7782		0.8167		0.6993		0.7469		0.5673		0.5894		0.5288		0.9417		0.8098		0.7994		0.7813		0.777		0.8513		0.7921		0.8213		0.8642		0.7395		0.6704		0.6713		0.9282		0.9632		0.8786		0.7679		0.7591		
85	952273		0.7926		0.72		0.8001		0.8645		0.7715		0.8212		0.6945		0.7505		0.5721		0.5897		0.5314		0.9656		0.8121		0.8059		0.7736		0.7616		0.8692		0.8108		0.8149		0.8461		0.7369		0.6636		0.6641		0.9356		0.9572		0.8725		0.7566		0.7474		
86	962272		0.7825		0.7287		0.7831		0.8557		0.7662		0.8217		0.711		0.7582		0.563		0.5871		0.535		0.9432		0.8173		0.7923		0.7675		0.7803		0.862		0.7781		0.8082		0.8491		0.7449		0.6756		0.6764		0.9295		0.9472		0.875		0.7604		0.734		
87	972273		0.7863		0.7296		0.8112		0.86		0.7744		0.8279		0.7195		0.7599		0.5534		0.5823		0.5262		0.9428		0.8096		0.808		0.7794		0.7765		0.85		0.8087		0.8196		0.8494		0.7497		0.6809		0.6864		0.9226		0.964		0.8628		0.7574		0.7494		
88	982272		0.7856		0.7276		0.8067		0.8535		0.7621		0.8238		0.7125		0.7413		0.5526		0.5808		0.5271		0.9445		0.8143		0.8003		0.7834		0.7652		0.86		0.7688		0.8125		0.8505		0.7509		0.6517		0.6738		0.9291		0.9489		0.8693		0.7551		0.741		
89	992271		0.7861		0.7209		0.802		0.845		0.7748		0.8267		0.6881		0.7487		0.5494		0.5858		0.5259		0.9552		0.8297		0.7902		0.7838		0.7727		0.8712		0.7942		0.8046		0.8656		0.7506		0.6645		0.6569		0.9217		0.9449		0.8757		0.7534		0.7355		
90	1002271		0.7854		0.7265		0.7802		0.8392		0.7672		0.8281		0.7057		0.7518		0.5431		0.579		0.5193		0.9428		0.8134		0.8081		0.7766		0.7786		0.8673		0.7766		0.8008		0.8424		0.744		0.6578		0.6621		0.9218		0.945		0.8844		0.7618		0.7361		
91	1012274		0.787		0.7294		0.765		0.8489		0.7801		0.8385		0.6954		0.7389		0.5385		0.5725		0.5161		0.9289		0.8163		0.81		0.7725		0.7807		0.8593		0.7697		0.8097		0.8502		0.7428		0.6616		0.6612		0.9323		0.9419		0.8772		0.7557		0.7359		
92	1022272		0.7829		0.7146		0.7766		0.854		0.78		0.8476		0.6916		0.737		0.5374		0.5536		0.5146		0.9543		0.8009		0.805		0.7707		0.7738		0.8548		0.7961		0.8104		0.8417		0.7513		0.6585		0.6728		0.93		0.9583		0.866		0.7723		0.7432		
93	1032270		0.7939		0.7296		0.7716		0.8599		0.7765		0.8204		0.6975		0.747		0.5307		0.5699		0.5048		0.9496		0.8151		0.7924		0.7618		0.779		0.8672		0.7888		0.8255		0.8369		0.7582		0.6584		0.6666		0.9234		0.9359		0.8768		0.7578		0.7432		
94	1042271		0.7884		0.7287		0.7977		0.8541		0.7811		0.825		0.6919		0.7588		0.5251		0.5619		0.5233		0.9384		0.8078		0.7993		0.7704		0.7712		0.847		0.8147		0.8179		0.8641		0.7433		0.6618		0.6666		0.9199		0.9547		0.8689		0.7627		0.7497		
95	1052270		0.7913		0.7273		0.7847		0.8668		0.788		0.8311		0.7049		0.7433		0.5173		0.5602		0.5128		0.9255		0.8082		0.7961		0.7832		0.7788		0.8736		0.7862		0.8082		0.8513		0.7443		0.6544		0.6749		0.9183		0.9515		0.8594		0.7533		0.7408		
96	1062270		0.7813		0.7165		0.7922		0.8434		0.7846		0.8162		0.6983		0.7493		0.5256		0.551		0.5171		0.9335		0.7997		0.8108		0.7699		0.7666		0.8801		0.7858		0.8164		0.8545		0.7493		0.6732		0.6781		0.9145		0.9471		0.8592		0.758		0.7273		
97	1108165		0.9972		1.0399		1.2275		1.0906		1.0692		1.1224		1.0969		1.074		0.7986		0.8805		0.8581		1.3268		1.2286		1.2862		1.1933		1.0967		1.2154		1.0965		1.1229		1.1466		0.9279		0.8355		0.8624		1.1665		1.213		1.1195		1.0311		1.0242		
98	1118181		0.8679		0.8554		0.9142		0.8429		0.8616		0.9031		0.7997		0.8263		0.6895		0.7283		0.6908		0.9305		0.8819		0.8949		0.9159		0.8218		0.9563		0.9798		0.9774		1.0007		0.8519		0.7819		0.7978		1.0509		1.1103		0.9699		0.8783		0.8829		
99	1128158		0.9127		0.8642		0.8894		0.8477		0.9069		0.9546		0.8132		0.8275		0.7246		0.75		0.7219		0.9516		0.8854		0.9158		0.8974		0.8399		0.9539		1.0632		1.047		1.0108		0.8797		0.8231		0.8292		1.0786		1.1186		0.9991		0.896		0.9086		
100	1138159		0.9157		0.875		0.8432		0.841		0.9323		0.9664		0.8388		0.849		0.7434		0.7656		0.7342		0.9119		0.8892		0.8884		0.8949		0.8409		0.9544		1.0648		1.0424		0.9819		0.8705		0.8412		0.8568		1.0768		1.0944		0.9745		0.9087		0.9311		
101	1148156		0.9201		0.8836		0.8128		0.837		0.906		0.9563		0.8801		0.8793		0.7382		0.787		0.7493		0.9137		0.8703		0.888		0.8838		0.8529		0.9658		1.0294		1.0116		0.9618		0.8752		0.8568		0.8452		1.026		1.0878		0.968		0.9165		0.9239		
102	1158158		0.9		0.8587		0.7964		0.8463		0.9033		0.9473		1.0759		0.9233		0.7615		0.7816		0.7602		0.9192		0.8716		0.8896		0.8758		0.8365		0.9398		0.987		0.9932		0.9278		0.8754		0.8687		0.8617		1.0219		1.0628		0.9594		0.9253		0.9273		
103	1168157		0.9009		0.8536		0.7903		0.8733		0.8983		0.9521		1.0011		0.8977		0.7594		0.7849		0.7727		0.9179		0.8905		0.8918		0.8847		0.838		0.9407		0.97		0.9609		0.9193		0.8771		0.8577		0.8503		1.0212		1.049		0.9812		0.9269		0.928		
104	1178156		0.8876		0.8471		0.7966		0.8942		0.9064		0.9509		0.9306		0.8691		0.7833		0.7836		0.7988		0.9104		0.8861		0.8899		0.8748		0.8485		0.9392		0.9644		0.967		0.9067		0.8809		0.8599		0.8707		1.0067		1.0214		1.0016		0.9423		0.9442		
105	1188156		0.8851		0.831		0.8154		0.9093		0.8997		0.9378		0.8825		0.8525		0.7572		0.7911		1.1722		0.9196		0.8969		0.8987		0.877		0.8443		0.9275		0.9586		0.9543		0.8927		0.8804		0.8622		0.8767		0.9885		1.024		1.0356		0.9592		0.951		
106	1198155		0.8872		0.8318		0.866		0.9412		0.9101		0.9554		0.8274		0.823		0.7713		0.7904		1.2488		0.9278		0.8919		0.9317		0.891		0.8532		0.9212		0.9509		0.962		0.8823		0.8714		0.8822		0.89		0.9775		1.0349		1.0579		0.9407		0.9555		
107	1208156		0.8828		0.8315		0.9954		0.9474		0.9081		0.9588		0.8031		0.8216		0.7641		0.7853		1.2806		0.9142		0.9042		0.9252		0.8905		0.8562		0.9156		0.9278		0.9532		0.8542		0.8801		0.8856		0.8924		0.9886		1.0207		1.0684		0.9473		0.97		
108	1218155		0.8872		0.8289		1.0728		0.9489		0.9052		0.9706		0.7958		0.841		0.7572		0.7843		1.2632		0.9244		0.9095		0.9355		0.9063		0.8696		0.8968		0.9452		0.9448		0.8447		0.8696		0.8798		0.8954		1.0069		1.0137		1.1026		0.9367		0.9465		
109	1228156		0.8957		0.8125		1.0678		0.93		0.9077		0.9413		0.794		0.8152		0.7482		0.7727		1.2372		0.9195		0.8907		0.9193		0.9139		0.865		0.8919		0.9308		0.9303		0.8384		0.8751		0.8852		0.9013		0.9683		1.0195		1.1064		0.9442		0.9454		
110	1238160		0.8836		0.8249		1.0059		0.9171		0.9049		0.9561		0.802		0.8295		0.7497		0.7863		1.2029		0.9286		0.8984		0.9382		0.915		0.8669		0.8958		0.9184		0.9326		0.8299		0.8694		0.8919		0.9103		0.9718		1.0265		1.0962		0.9429		0.929		
111	1248159		0.8932		0.8095		0.9979		0.8972		0.9007		0.9498		0.8202		0.8365		0.7413		0.7734		1.1537		0.9296		0.9057		0.9449		0.9218		0.8608		0.8851		0.9184		0.9175		0.8199		0.8717		0.9035		0.9073		0.9831		0.9914		1.0912		0.9229		0.9306		
112	1258155		0.8736		0.816		0.9658		0.8831		0.9171		0.9584		0.8067		0.837		0.7405		0.7783		1.0449		0.9294		0.896		0.9549		0.9231		0.8657		0.8828		0.8994		0.9186		0.8098		0.8596		0.8933		0.9148		0.9787		0.9722		1.0997		0.9151		0.9172		
