93	ThroughSeriesAnalysis4.0DATA	ngallego	29/05/2025	19:12:12	Number Of Statistical Points : 93	Number Of Statistical Regions : 15	XY Calibration : X*4.0 (um) : Y*4.0 (um)	Threshold Max : OFF	Threshold Min : -3.40282346638529E38	
Region			57		58		59		60		61		62		63		64		65		66		67		68		69		70		71
Description			_Background Rectangle (123,201 : 129,209) Colour(255) Label(57)		_Background Rectangle (191,210 : 197,220) Colour(255) Label(58)		_Background Rectangle (35,134 : 44,141) Colour(255) Label(59)		_Background Rectangle (218,221 : 227,229) Colour(255) Label(60)		_Background Rectangle (155,181 : 165,193) Colour(255) Label(61)		_Background Rectangle (285,114 : 292,123) Colour(255) Label(62)		_Background Rectangle (302,134 : 309,144) Colour(255) Label(63)		_Background Rectangle (316,187 : 321,196) Colour(255) Label(64)		_Background Rectangle (312,197 : 317,205) Colour(255) Label(65)		_Background Rectangle (310,208 : 315,215) Colour(255) Label(66)		_Background Rectangle (296,220 : 302,229) Colour(255) Label(67)		_Background Rectangle (287,230 : 292,238) Colour(255) Label(68)		_Background Rectangle (278,247 : 284,257) Colour(255) Label(69)		_Background Rectangle (264,246 : 269,254) Colour(255) Label(70)		_Background Rectangle (47,235 : 57,243) Colour(255) Label(71)
Area (um*um)			768.0		960.0		1008.0		1152.0		1920.0		1008.0		1120.0		720.0		640.0		560.0		864.0		640.0		960.0		640.0		1280.0
Frame	Time (ms)		490/10(466.1) Mean Intensity 		490/10(466.1) Mean Intensity 		490/10(466.1) Mean Intensity 		490/10(466.1) Mean Intensity 		490/10(466.1) Mean Intensity 		490/10(466.1) Mean Intensity 		490/10(466.1) Mean Intensity 		490/10(466.1) Mean Intensity 		490/10(466.1) Mean Intensity 		490/10(466.1) Mean Intensity 		490/10(466.1) Mean Intensity 		490/10(466.1) Mean Intensity 		490/10(466.1) Mean Intensity 		490/10(466.1) Mean Intensity 		490/10(466.1) Mean Intensity 		
0	0		12.2917		13.0		9.1746		14.75		14.1417		12.8254		14.9		18.7556		19.15		25.5714		26.537		23.225		23.15		23.125		20.4		
1	10242		10.9167		12.75		9.6667		14.875		14.5333		12.6349		14.6143		19.6		19.1		23.6		27.1111		23.15		23.0833		22.425		20.4875		
2	20243		12.4792		12.2667		9.6984		15.3194		14.0417		13.1111		14.3857		18.3778		19.05		24.8857		26.7963		22.85		22.4333		22.125		20.4125		
3	30241		12.0		12.1833		8.4762		14.8056		14.3083		12.619		14.6143		18.6667		19.05		24.5143		26.9444		22.725		23.4667		21.7		20.3		
4	40337		11.7708		13.1167		9.6508		14.9861		14.65		12.8889		14.6857		18.6889		19.15		25.6286		27.537		22.9		23.1		23.175		20.975		
5	50241		12.5417		13.2667		9.2698		14.9722		14.7		13.0794		14.3		18.8889		19.525		24.3714		27.3148		23.0		23.2833		22.925		20.8875		
6	60241		13.0417		12.65		9.5873		14.8611		14.5		12.7302		14.8857		18.5556		19.525		24.9429		27.9815		23.55		23.1333		22.825		20.9		
7	70240		11.9375		13.1167		9.2857		14.2917		14.0333		12.7937		13.9286		19.1333		18.4		23.3143		26.4444		22.55		23.25		21.55		20.675		
8	80240		12.6875		13.2		9.2063		14.8333		14.275		12.7937		15.3143		19.3111		18.85		24.5714		27.5185		22.9		23.7667		23.1		20.775		
9	90240		11.6875		12.95		9.0159		15.1806		14.3333		12.6508		15.1714		19.2444		19.55		24.3143		26.5		22.8		22.7667		21.925		19.825		
10	100239		12.0208		12.3667		9.1587		15.4444		14.1917		12.8095		14.6286		18.9111		19.4		23.3143		27.4815		23.5		22.8		23.625		21.3875		
11	110239		13.3958		13.45		9.2381		15.6667		14.1917		12.873		14.3571		18.8222		19.15		24.5143		27.8889		23.65		23.1667		22.075		20.375		
12	120240		11.8958		12.7		9.3651		15.4722		14.925		13.2063		14.2429		19.8444		18.175		24.3143		27.0185		23.6		23.4		22.45		20.3625		
13	130238		12.1875		12.5		9.3016		14.9167		14.6083		13.2698		15.1286		18.3556		19.725		24.6		26.5185		23.6		22.75		22.525		20.925		
14	140238		12.7917		12.5667		8.1905		14.7917		14.55		12.2222		14.3		18.9778		19.4		23.7714		27.7037		23.45		23.15		23.55		21.2		
15	150238		12.9167		13.0		9.4444		15.0278		14.1417		12.9206		14.6571		18.6667		18.75		24.2286		27.3889		22.425		22.7667		22.8		21.1375		
16	160237		12.6875		12.7333		8.9524		15.5139		14.4333		12.7619		14.5		19.1556		19.15		25.0286		26.7963		22.75		23.3833		22.825		21.0		
17	170237		12.3333		12.7		9.3333		15.5278		14.1917		12.7619		15.3429		18.6444		19.5		24.0571		26.5		23.85		22.7833		21.6		20.3375		
18	216109		12.0208		12.8833		8.9683		17.8194		14.925		13.4286		15.9571		26.2667		25.35		26.4571		28.3148		25.3		23.6667		23.875		19.55		
19	226095		12.5		13.6167		9.7302		16.375		15.3583		14.254		16.1857		27.1111		27.125		27.7714		27.7963		24.5		24.1667		23.275		18.9		
20	236094		12.625		13.75		9.3968		17.3889		14.7417		13.3492		16.5286		26.8667		26.525		26.5714		27.6481		25.0		24.05		24.425		18.875		
21	246094		12.0417		13.85		8.6825		17.1528		15.2333		14.0794		16.4429		26.5333		25.975		26.8286		27.463		25.05		22.5667		23.1		18.1125		
22	256094		11.4583		13.4		9.4921		16.5833		14.8167		13.3492		16.0571		26.2444		27.375		27.8		27.1481		23.825		23.85		23.9		19.0625		
23	266093		12.1042		13.2667		8.9048		17.0278		15.0083		13.5079		16.0143		27.3778		26.2		27.1429		27.6852		25.625		23.3167		22.85		18.6		
24	276093		12.0208		13.9		9.5079		17.0278		14.7		13.9841		16.2571		27.5778		26.375		26.5143		27.9074		25.525		22.9		23.275		19.1875		
25	286093		12.2083		12.8		8.8095		17.2639		14.3417		13.7937		15.7429		26.5333		26.55		27.6857		27.7593		25.0		23.75		22.775		18.4125		
26	296093		12.25		14.1333		9.2381		17.5417		14.525		13.6508		16.1714		26.4444		26.45		27.3714		27.5185		25.2		23.8667		24.075		19.05		
27	306092		11.8125		13.4833		9.5079		17.0556		15.1333		13.9524		15.3857		25.7111		25.875		27.5143		27.7593		25.575		24.0167		23.275		19.45		
28	316092		12.3333		13.5		8.9841		16.9167		14.85		13.2698		16.0857		27.2444		26.8		26.3714		27.8704		25.2		23.35		23.425		18.725		
29	326092		12.1458		13.0667		8.746		16.9861		14.7833		13.1111		16.5429		26.9333		26.3		27.0286		27.1667		24.675		23.5		23.075		19.0375		
30	336091		11.6667		12.6833		9.4286		17.3472		14.7333		13.8413		15.2429		26.5556		26.225		26.5714		28.1111		25.4		23.0833		23.4		18.75		
31	346091		12.6667		13.6167		8.9206		17.1528		15.05		13.381		16.1143		26.5556		26.55		27.6286		29.1667		25.075		23.7667		23.475		19.425		
32	356091		12.6458		13.05		8.619		17.4167		15.3417		13.5556		15.7857		26.6222		25.15		26.7714		28.5926		25.375		23.6167		23.85		18.8125		
33	366090		12.2917		13.5833		9.6349		17.5		14.9083		13.8889		16.2857		27.4		26.75		27.0286		28.2407		25.25		23.7667		24.35		18.775		
34	376090		12.9583		13.7667		9.127		17.4722		14.1583		13.9683		15.6857		26.7778		26.575		26.2857		29.0556		25.925		23.8		23.25		19.2		
35	386090		11.8958		13.85		9.1587		17.0694		15.25		13.8413		16.2714		27.0222		26.175		26.5429		28.1667		24.725		23.8667		22.625		19.4		
36	396091		11.9167		13.45		8.9365		17.0		14.4667		13.9048		16.1429		27.2667		25.875		26.3714		27.6852		25.5		23.3333		23.875		18.9		
37	406089		12.75		13.65		9.3333		17.6806		14.6917		13.8413		15.9143		26.6444		27.025		26.0571		27.2593		25.65		24.3333		23.925		19.0625		
38	416089		12.5208		13.25		9.0159		17.625		14.3833		13.873		15.8143		26.7556		26.25		26.8857		27.3333		24.675		22.7833		22.65		19.0875		
39	426089		11.7292		12.7333		9.2222		17.0694		14.875		14.3333		15.5429		26.6		26.95		26.4286		28.0556		26.15		22.7667		22.95		18.85		
40	436088		11.125		13.6833		9.5873		17.5556		14.6083		13.8571		16.2714		25.9556		26.2		27.5714		27.8148		25.325		24.4833		23.025		18.975		
41	485952		11.4167		13.5333		9.9524		17.9167		15.1917		13.1905		16.2857		27.3333		26.9		27.5714		28.0926		25.325		24.1833		24.4		19.0625		
42	495946		11.8125		14.1167		9.127		17.9028		14.5667		13.8254		16.4714		27.4		26.1		27.5429		28.2407		25.3		23.9833		23.775		18.625		
43	505947		11.5833		13.0		9.127		17.1667		14.5417		14.5079		15.3571		27.5556		26.9		27.6571		27.3148		24.35		24.05		24.775		18.325		
44	515945		12.0833		13.9167		9.1587		17.9306		14.8917		13.8571		16.2429		26.8222		26.875		27.2857		28.3519		25.325		23.9333		23.925		18.9875		
45	525945		11.2708		13.8333		8.7143		16.9167		15.2833		14.0476		16.6		27.1778		27.4		27.9143		27.8519		25.075		24.2333		23.875		19.175		
46	535945		11.8542		13.5167		8.7937		17.6667		14.6		14.4127		16.8571		27.7111		27.05		28.2286		28.9074		25.45		23.2167		24.5		18.2625		
47	545945		12.0625		13.1333		9.1429		17.875		15.2		13.8254		16.5857		27.8444		26.875		27.5714		28.8519		26.2		23.6167		23.225		18.8		
48	555944		12.2083		13.2167		8.6667		17.9028		15.1083		13.4762		16.2429		27.2444		27.525		27.5143		27.6667		25.9		24.0167		23.075		18.925		
49	565944		12.1042		12.95		9.1905		17.8056		15.0083		14.1746		16.7714		28.1556		26.5		28.4		27.9815		25.775		24.3833		23.975		18.35		
50	575943		12.1458		13.2667		9.3175		16.9167		15.1333		13.7302		16.0857		27.1111		26.975		27.2		27.8148		25.55		22.75		23.875		18.9625		
51	585943		12.5625		13.1833		9.127		17.375		14.4333		13.8889		16.0714		27.0222		25.325		26.8		28.0185		24.825		23.0667		22.825		18.7		
52	595943		13.6875		12.7167		9.0952		17.0972		14.8667		13.3492		16.6857		26.9111		26.325		26.9143		27.1852		24.25		23.9167		23.625		18.525		
53	605943		12.2708		12.8167		9.0794		17.4722		14.9417		13.9683		16.8714		27.4444		26.35		27.3143		28.1481		25.225		23.1		23.325		18.6875		
54	615942		12.1875		13.3333		8.6349		17.1806		14.6667		13.619		15.5714		27.2444		26.825		26.9429		28.4074		25.375		24.15		23.25		19.0625		
55	625942		12.1875		13.5333		8.8413		17.5694		15.225		13.7937		16.1143		27.2222		26.35		27.3714		28.1667		25.05		23.5		23.075		18.775		
56	635942		12.5417		13.3		8.9841		17.0556		14.85		13.1746		16.3857		26.9556		26.4		28.3143		27.9259		25.225		23.4833		23.95		18.925		
57	645941		11.0417		13.4667		8.9841		17.4028		15.1167		13.6825		15.3286		25.8889		26.075		28.6		28.2037		26.4		22.9333		23.275		18.7		
58	655941		12.3333		13.5667		9.4603		18.6667		14.8167		14.4286		16.5286		27.2889		26.125		26.4286		27.0741		25.675		23.85		24.2		17.9625		
59	665941		11.9167		13.4167		8.7937		17.4583		14.6667		14.127		16.5857		26.9556		26.1		27.4571		26.8704		24.5		23.5667		22.925		18.8875		
60	675941		11.625		13.4833		9.0635		17.2778		14.2083		13.8889		16.6		26.2222		26.025		27.3714		27.0185		24.375		23.05		23.175		18.425		
61	685940		11.3333		13.5833		8.8889		17.7639		14.6667		14.1746		16.9714		27.4		26.975		27.4571		28.9074		24.575		23.1667		23.35		18.3125		
62	695940		11.8542		13.15		8.6825		17.0833		15.2167		14.127		15.9		26.7111		26.1		27.6		28.5741		25.025		24.3667		23.5		18.975		
63	705940		11.9792		12.4667		8.8413		17.2083		15.4167		14.127		15.8571		27.2889		25.675		27.1429		27.7963		25.675		23.5333		23.75		18.6		
64	715939		12.2917		13.8667		8.1587		17.8333		15.05		13.4762		16.2571		27.2444		25.4		27.3143		26.8148		25.65		23.95		23.5		18.35		
65	725939		12.6458		13.5		8.5714		17.4722		14.5417		13.7143		16.1857		27.9778		27.325		28.6571		28.8333		24.7		24.3		24.575		19.3375		
66	779708		12.0208		13.4		9.127		17.4861		14.9917		14.5714		16.4857		26.7333		25.7		27.6286		28.3333		24.0		23.2667		24.025		18.475		
67	789704		11.4792		13.2		9.0159		17.2222		14.425		13.746		16.1714		26.8444		25.5		27.9143		27.7037		24.725		23.6167		24.075		18.525		
68	799702		12.3125		13.3167		8.8095		17.4167		14.925		14.1746		15.7714		26.9778		27.25		27.6		27.537		25.575		23.4833		23.4		18.875		
69	809702		11.9167		13.7667		9.4127		16.8333		14.9917		14.0317		16.5857		27.6222		25.75		26.6571		27.1667		25.45		22.7333		24.15		18.175		
70	819702		12.2917		13.35		8.6032		17.5972		14.8333		13.8889		16.7714		26.2444		27.0		26.9143		26.8889		25.925		23.25		23.225		18.3875		
71	829701		11.8542		13.0167		8.7937		17.2778		14.7083		14.3016		16.1286		26.8444		27.3		27.6286		27.5556		25.675		22.65		23.75		18.3875		
72	839701		12.1875		13.25		9.0317		17.4722		14.6833		13.746		16.0571		26.5333		27.05		27.0571		26.7407		25.15		23.75		23.575		18.95		
73	849701		11.875		13.1333		9.1746		17.0556		14.8		13.381		16.2143		26.3333		26.775		27.8857		27.4444		24.825		24.3167		23.5		17.75		
74	859700		12.375		12.95		9.1587		17.9028		14.5		13.1429		15.5714		26.2889		26.4		28.7429		27.8704		25.125		22.2667		24.45		18.875		
75	869700		12.1458		13.75		8.7619		16.8333		14.875		13.4762		15.8571		26.6		26.075		28.9714		27.8519		25.3		23.9		23.65		18.15		
76	879700		12.5625		13.1167		9.2857		17.1528		14.3333		14.3333		16.4286		26.6889		27.125		27.4286		27.8704		25.15		23.8667		24.15		17.65		
77	889700		11.6458		13.35		9.0635		17.2361		14.45		14.0159		15.6286		27.3111		26.275		27.3429		27.3148		24.45		23.1833		24.25		19.1		
78	899699		12.1042		13.55		8.381		17.7778		14.6583		14.9206		16.1		27.0222		25.5		27.6857		27.3519		25.5		23.8		23.525		18.65		
79	909699		12.5		12.8833		8.8413		17.3056		15.5917		13.7302		16.2857		27.5333		26.55		27.1429		27.463		25.575		23.3667		23.7		18.45		
80	919699		12.25		13.2		9.6667		17.6667		14.525		13.873		15.9		27.3556		27.025		27.4571		26.9815		25.05		23.45		23.75		18.425		
81	929698		12.9167		13.4167		8.5397		16.9028		14.575		13.0635		16.4429		27.0444		26.7		28.0857		27.5926		24.525		23.7833		23.975		18.0625		
82	939698		11.5208		13.3333		8.9841		16.6944		15.3583		14.0476		15.8429		26.8		26.1		27.7143		27.7222		25.175		23.2167		24.325		18.5875		
83	949698		11.9375		13.5167		9.6825		17.3194		14.3583		13.9683		16.4714		26.9778		26.075		27.8857		26.5556		24.55		24.1167		23.85		18.2125		
84	1000987		12.125		13.9167		9.2857		20.0417		15.1583		14.5714		18.6286		32.9778		31.825		32.7143		31.6111		28.875		25.0		27.375		20.6625		
85	1010977		12.0625		13.5167		9.7778		20.7083		15.3083		14.7302		19.8857		37.2444		35.625		36.9714		37.8333		33.55		28.3333		30.925		23.175		
86	1020977		11.75		14.15		9.619		20.3472		15.5167		14.7937		20.6286		38.7778		37.9		39.9714		39.2593		35.55		29.65		33.85		23.425		
87	1030976		12.5417		13.7		9.1905		20.5139		15.125		14.6349		20.5286		36.5778		37.075		38.7143		38.7407		36.75		30.2167		34.525		24.2875		
88	1040976		12.7292		14.1333		9.5079		21.5139		15.4833		15.5714		20.7571		37.3778		37.525		39.9143		38.3704		36.825		29.2833		34.15		24.1875		
89	1050976		12.6458		14.5		10.381		20.7917		15.325		14.5079		20.8143		37.7556		36.825		38.9143		38.4074		37.025		30.25		33.2		23.9375		
90	1060976		12.0625		13.7667		9.1746		20.375		14.7833		14.9841		20.3286		36.4222		37.825		39.7429		37.9444		36.825		29.95		33.9		24.25		
91	1071068		12.5208		14.0		9.7143		20.75		15.4083		14.619		19.9		35.6		36.825		40.1429		36.3889		37.025		30.2833		34.775		23.6375		
92	1080975		12.5		13.6833		9.6349		20.625		15.3167		14.8889		20.0857		35.6222		35.975		38.9429		37.2593		36.25		29.6333		35.6		23.45		
