Frame,Time (ms),,Mean Intensity ,,Mean Intensity ,,Mean Intensity ,,Mean Intensity ,,Mean Intensity ,,Mean Intensity ,,Mean Intensity ,,Mean Intensity ,,Mean Intensity ,,Mean Intensity ,,Mean Intensity ,,Mean Intensity ,,Mean Intensity ,,Mean Intensity ,,Mean Intensity ,,Mean Intensity ,,Mean Intensity ,,Mean Intensity ,,Mean Intensity ,,Mean Intensity ,,Mean Intensity ,,Mean Intensity ,,Mean Intensity ,,Mean Intensity ,,Mean Intensity ,,Mean Intensity ,,Mean Intensity ,,Mean Intensity 
0,2163,,0.5399,,0.5583,,0.6081,,0.6648,,0.7294,,0.6189,,0.6364,,0.5625,,0.6093,,0.6286,,0.5695,,0.5381,,0.5672,,0.4904,,0.7277,,0.7311,,0.8249,,0.5648,,0.8052,,0.6078,,0.6598,,0.6974,,0.7121,,0.6837,,0.6552,,0.6648,,0.6983,,0.6861
1,14170,,0.5461,,0.5561,,0.5974,,0.6617,,0.7195,,0.617,,0.6379,,0.5584,,0.6165,,0.6143,,0.5797,,0.5312,,0.5699,,0.5014,,0.697,,0.7641,,0.8204,,0.5755,,0.8029,,0.6019,,0.6582,,0.7066,,0.7313,,0.6804,,0.6311,,0.6574,,0.6739,,0.6677
2,21600,,0.5475,,0.5621,,0.5904,,0.6845,,0.7189,,0.6181,,0.6372,,0.5613,,0.603,,0.6017,,0.5705,,0.5497,,0.5676,,0.494,,0.6841,,0.7672,,0.8101,,0.5707,,0.8063,,0.5973,,0.6615,,0.7524,,0.8457,,0.6692,,0.6317,,0.6529,,0.6692,,0.6532
3,31600,,0.5539,,0.5613,,0.6081,,0.6619,,0.7222,,0.6075,,0.6302,,0.5573,,0.8676,,0.7183,,0.5753,,0.5459,,0.5678,,0.5025,,0.7283,,0.797,,0.8226,,0.584,,0.7828,,0.6036,,0.6778,,0.7345,,0.6998,,0.6724,,0.6286,,0.6621,,0.686,,0.6773
4,41599,,0.5537,,0.5709,,0.6037,,0.6475,,0.7473,,0.6073,,0.6425,,0.5499,,0.6701,,0.6971,,0.5851,,0.5502,,0.5703,,0.5124,,0.6948,,0.7712,,0.7973,,0.5829,,0.7801,,0.5956,,0.6734,,0.7511,,0.774,,0.6825,,0.6189,,0.6737,,0.6986,,0.6864
5,51612,,0.5495,,0.5589,,0.5853,,0.6801,,0.7441,,0.6147,,0.6388,,0.5519,,0.6096,,0.628,,0.5973,,0.5471,,0.5693,,0.5117,,0.6979,,0.8009,,0.7941,,0.582,,0.7841,,0.5913,,0.6824,,0.7447,,0.6714,,0.666,,0.6197,,0.7377,,0.8947,,0.8817
6,61613,,0.5336,,0.557,,0.5881,,0.6395,,0.7513,,0.6144,,0.6558,,0.544,,0.7154,,0.6358,,0.5908,,0.5417,,0.5632,,0.495,,0.6599,,0.735,,0.7767,,0.5672,,0.7719,,0.5948,,0.6814,,0.7918,,0.7389,,0.6607,,0.6098,,0.8395,,0.8373,,0.8249
7,71622,,0.5377,,0.5476,,0.5794,,0.638,,0.7255,,0.6148,,0.6315,,0.5425,,0.6843,,0.6495,,0.5708,,0.545,,0.5628,,0.4956,,0.684,,0.7045,,0.7911,,0.5773,,0.7678,,0.5975,,0.6716,,0.8586,,0.6825,,0.6631,,0.6083,,0.7052,,0.7225,,0.7125
8,81702,,0.5483,,0.5566,,0.588,,0.6834,,0.7038,,0.6066,,0.6241,,0.541,,0.6616,,0.6744,,0.5768,,0.5464,,0.5681,,0.497,,0.6872,,0.771,,0.7737,,0.5748,,0.7668,,0.5916,,0.6726,,0.8096,,0.6775,,0.6735,,0.6026,,0.654,,0.6767,,0.6593
9,91628,,0.5469,,0.5624,,0.5833,,0.7072,,0.6919,,0.6062,,0.6377,,0.5284,,0.6449,,0.7236,,0.5686,,0.55,,0.5635,,0.5022,,0.647,,0.7699,,0.7834,,0.5669,,0.765,,0.6028,,0.6837,,0.7631,,0.7329,,0.6481,,0.6029,,0.6459,,0.6642,,0.6397
10,101626,,0.554,,0.5704,,0.5878,,0.7001,,0.7132,,0.6155,,0.6217,,0.5285,,0.7171,,0.6804,,0.5695,,0.5486,,0.5638,,0.4969,,0.6665,,0.746,,0.7937,,0.5613,,0.7539,,0.601,,0.6784,,0.7377,,0.6701,,0.6461,,0.6028,,0.6404,,0.6773,,0.647
11,111626,,0.5482,,0.5601,,0.5846,,0.701,,0.7078,,0.6109,,0.6325,,0.5404,,0.6464,,0.6504,,0.5864,,0.5449,,0.5657,,0.4915,,0.6381,,0.7151,,0.7715,,0.5718,,0.7619,,0.5945,,0.6783,,0.7012,,0.6442,,0.6438,,0.5971,,0.6315,,0.6639,,0.6391
12,121628,,0.55,,0.5584,,0.591,,0.6889,,0.702,,0.6166,,0.6127,,0.5543,,0.7297,,0.6695,,0.5892,,0.5407,,0.5585,,0.4952,,0.6541,,0.6919,,0.7808,,0.5738,,0.7712,,0.596,,0.6682,,0.6999,,0.6519,,0.6436,,0.5896,,0.6389,,0.6666,,0.6622
13,160156,,0.553,,0.5617,,0.5777,,0.6524,,0.6863,,0.6092,,0.6182,,0.5493,,0.6487,,0.6225,,0.5861,,0.5582,,0.5591,,0.4954,,0.5504,,0.6818,,0.7579,,0.561,,0.7535,,0.5897,,0.6616,,0.6786,,0.64,,0.6346,,0.5938,,0.6802,,0.7272,,0.7175
14,170141,,0.5486,,0.5553,,0.5693,,0.6314,,0.6662,,0.6006,,0.6227,,0.5431,,0.6,,0.6088,,0.6003,,0.5537,,0.5613,,0.4821,,0.5375,,0.6178,,0.6968,,0.5616,,0.7323,,0.5892,,0.6566,,0.6556,,0.6088,,0.6095,,0.5809,,0.6673,,0.6949,,0.6774
15,180140,,0.5507,,0.5644,,0.5772,,0.6266,,0.6782,,0.5955,,0.6135,,0.5313,,0.603,,0.6081,,0.5903,,0.5628,,0.5591,,0.4809,,0.5374,,0.6151,,0.7019,,0.5551,,0.7389,,0.575,,0.6499,,0.6362,,0.5541,,0.6169,,0.5782,,0.6459,,0.6794,,0.6609
16,190140,,0.5445,,0.5622,,0.5754,,0.6529,,0.6749,,0.5971,,0.6104,,0.5467,,0.6258,,0.6169,,0.5913,,0.5457,,0.5579,,0.4815,,0.5435,,0.6064,,0.718,,0.5622,,0.7432,,0.5787,,0.6517,,0.6416,,0.5556,,0.6094,,0.5791,,0.6413,,0.6658,,0.6432
17,200140,,0.5491,,0.5525,,0.5747,,0.6471,,0.6877,,0.6075,,0.6239,,0.5581,,0.5996,,0.6221,,0.591,,0.5358,,0.5528,,0.4919,,0.5466,,0.618,,0.7497,,0.5794,,0.7242,,0.5899,,0.6541,,0.6453,,0.5666,,0.6261,,0.5868,,0.6416,,0.6608,,0.6522
18,210139,,0.5514,,0.5698,,0.573,,0.6517,,0.6959,,0.6054,,0.6348,,0.5458,,0.5836,,0.6085,,0.601,,0.5433,,0.5648,,0.4889,,0.5484,,0.6175,,0.7463,,0.573,,0.7389,,0.5897,,0.6573,,0.6745,,0.601,,0.6313,,0.5993,,0.6421,,0.6657,,0.6588
19,220139,,0.545,,0.5603,,0.5824,,0.6296,,0.6839,,0.6034,,0.6388,,0.5233,,0.5931,,0.5994,,0.5926,,0.5365,,0.5535,,0.4857,,0.5461,,0.6208,,0.7424,,0.5687,,0.753,,0.5855,,0.66,,0.6766,,0.646,,0.6402,,0.596,,0.6391,,0.6629,,0.6579
20,230139,,0.553,,0.5661,,0.5779,,0.6432,,0.6977,,0.6024,,0.631,,0.5368,,0.5991,,0.617,,0.5883,,0.5441,,0.5568,,0.4908,,0.562,,0.6391,,0.7486,,0.5737,,0.7506,,0.5827,,0.6741,,0.6876,,0.7163,,0.6423,,0.5955,,0.653,,0.6723,,0.6605
21,240140,,0.5436,,0.5585,,0.5821,,0.6314,,0.7031,,0.6018,,0.6434,,0.523,,0.6384,,0.6161,,0.5763,,0.5378,,0.5594,,0.4935,,0.6109,,0.6456,,0.7667,,0.5689,,0.748,,0.5917,,0.6579,,0.6643,,0.6115,,0.6455,,0.6045,,0.673,,0.6821,,0.6754
22,250139,,0.5514,,0.5486,,0.5741,,0.6402,,0.6964,,0.6055,,0.6332,,0.536,,0.5997,,0.6184,,0.5862,,0.5406,,0.5588,,0.4904,,0.6929,,0.6624,,0.7706,,0.5654,,0.7759,,0.5831,,0.6606,,0.6524,,0.5638,,0.6306,,0.5963,,0.6805,,0.694,,0.6865
23,260138,,0.5472,,0.5547,,0.5717,,0.6418,,0.7079,,0.6125,,0.6728,,0.5435,,0.5867,,0.6126,,0.584,,0.5391,,0.5548,,0.4862,,0.6507,,0.687,,0.7795,,0.5603,,0.7522,,0.5892,,0.6563,,0.6586,,0.5943,,0.6514,,0.5984,,0.8606,,0.9672,,0.9167
24,270139,,0.5434,,0.553,,0.5795,,0.658,,0.7155,,0.6048,,0.6613,,0.5402,,0.5916,,0.6023,,0.5793,,0.5412,,0.5602,,0.4911,,0.6362,,0.7328,,0.7616,,0.5683,,0.7544,,0.5931,,0.6575,,0.7138,,0.7361,,0.6365,,0.5889,,0.7618,,0.7833,,0.7929
25,280138,,0.5477,,0.5754,,0.5714,,0.6431,,0.6959,,0.6087,,0.648,,0.5387,,0.6432,,0.6128,,0.5619,,0.5491,,0.5545,,0.4897,,0.6039,,0.7692,,0.7779,,0.5556,,0.7437,,0.581,,0.6637,,0.6978,,0.694,,0.6273,,0.5941,,0.6799,,0.6962,,0.6817
26,290136,,0.5335,,0.5659,,0.5665,,0.6446,,0.6998,,0.6119,,0.6319,,0.5437,,0.6068,,0.6147,,0.5665,,0.5462,,0.5557,,0.4975,,0.5634,,0.6867,,0.7603,,0.5632,,0.76,,0.5792,,0.6641,,0.6892,,0.6185,,0.6324,,0.5932,,0.6449,,0.6659,,0.6617
27,300138,,0.539,,0.5582,,0.5569,,0.6309,,0.7218,,0.611,,0.6229,,0.5206,,0.5866,,0.6122,,0.5757,,0.5466,,0.559,,0.4997,,0.5451,,0.6449,,0.7446,,0.5549,,0.7417,,0.5791,,0.6625,,0.6511,,0.5703,,0.6356,,0.5943,,0.6423,,0.6615,,0.656
28,310138,,0.5389,,0.546,,0.5717,,0.6059,,0.7036,,0.5975,,0.6144,,0.5313,,0.5851,,0.5995,,0.5784,,0.5458,,0.5591,,0.4983,,0.5441,,0.6275,,0.7422,,0.5584,,0.7273,,0.5818,,0.6654,,0.6649,,0.5763,,0.6268,,0.5997,,0.634,,0.6675,,0.637
29,320135,,0.5507,,0.5557,,0.5761,,0.6223,,0.7221,,0.6107,,0.6164,,0.5263,,0.6296,,0.6034,,0.5756,,0.5383,,0.5623,,0.4925,,0.5406,,0.6211,,0.7332,,0.5667,,0.7249,,0.5745,,0.6751,,0.6731,,0.6052,,0.6214,,0.5875,,0.6429,,0.6681,,0.655
30,330135,,0.5528,,0.5514,,0.5616,,0.6368,,0.7083,,0.6203,,0.6129,,0.5384,,0.5967,,0.6014,,0.5658,,0.541,,0.5547,,0.4918,,0.5389,,0.614,,0.7341,,0.5667,,0.7356,,0.5741,,0.669,,0.7048,,0.7369,,0.6136,,0.5756,,0.6329,,0.6647,,0.6465
31,340148,,0.5501,,0.5554,,0.5657,,0.608,,0.6832,,0.6019,,0.617,,0.5169,,0.5838,,0.5965,,0.563,,0.5398,,0.5626,,0.4901,,0.5451,,0.6145,,0.7232,,0.5632,,0.7207,,0.5802,,0.664,,0.6625,,0.6328,,0.6186,,0.5794,,0.6347,,0.6681,,0.6562
32,350135,,0.5481,,0.5627,,0.5662,,0.6203,,0.6885,,0.5989,,0.6201,,0.5065,,0.5776,,0.5923,,0.5634,,0.536,,0.558,,0.4901,,0.5399,,0.6177,,0.6998,,0.563,,0.7245,,0.5805,,0.6666,,0.6512,,0.5676,,0.6165,,0.5834,,0.6285,,0.6581,,0.6402
33,360135,,0.5411,,0.5498,,0.5623,,0.6235,,0.6895,,0.6039,,0.6141,,0.5116,,0.5718,,0.5929,,0.5684,,0.5351,,0.5545,,0.4905,,0.5427,,0.612,,0.7274,,0.555,,0.7218,,0.5699,,0.6566,,0.6435,,0.5487,,0.6109,,0.5855,,0.6378,,0.6657,,0.6541
34,370136,,0.5381,,0.5637,,0.5582,,0.6103,,0.6895,,0.5921,,0.6121,,0.5139,,0.5784,,0.5975,,0.5658,,0.5403,,0.5639,,0.4902,,0.5414,,0.6104,,0.7057,,0.5579,,0.7081,,0.5696,,0.6428,,0.6479,,0.5537,,0.6053,,0.5871,,0.6362,,0.6689,,0.6564
35,380135,,0.5427,,0.5603,,0.5609,,0.6236,,0.6776,,0.5964,,0.6193,,0.5296,,0.5739,,0.5989,,0.5669,,0.5441,,0.5662,,0.4901,,0.5383,,0.6173,,0.7364,,0.5556,,0.7086,,0.5732,,0.6515,,0.6462,,0.5656,,0.6134,,0.5909,,0.6442,,0.6634,,0.6573
36,390134,,0.5322,,0.5561,,0.5605,,0.6237,,0.6729,,0.6018,,0.6216,,0.5098,,0.5898,,0.6137,,0.574,,0.5425,,0.5665,,0.4968,,0.5377,,0.611,,0.7145,,0.5742,,0.7438,,0.5783,,0.6535,,0.6463,,0.5642,,0.6017,,0.5859,,0.6363,,0.6632,,0.6476
37,400135,,0.5377,,0.5503,,0.5663,,0.6265,,0.6774,,0.6013,,0.6273,,0.5203,,0.5852,,0.6092,,0.5805,,0.5395,,0.563,,0.4871,,0.5415,,0.6158,,0.7089,,0.5536,,0.7185,,0.5684,,0.6509,,0.643,,0.5683,,0.603,,0.5783,,0.6372,,0.6631,,0.6605
38,410134,,0.544,,0.5532,,0.5569,,0.6203,,0.6973,,0.6021,,0.6051,,0.5161,,0.57,,0.6031,,0.5775,,0.5312,,0.5606,,0.495,,0.5455,,0.6083,,0.6981,,0.5528,,0.7064,,0.5705,,0.6516,,0.6461,,0.5753,,0.6121,,0.5827,,0.6463,,0.6643,,0.6534
39,420133,,0.5458,,0.5692,,0.5732,,0.6118,,0.6822,,0.6043,,0.6063,,0.5137,,0.5707,,0.602,,0.5727,,0.5406,,0.5686,,0.4979,,0.5357,,0.6063,,0.7029,,0.5615,,0.721,,0.5728,,0.6371,,0.6387,,0.5684,,0.614,,0.5915,,0.6291,,0.6662,,0.65
40,430132,,0.5412,,0.5529,,0.566,,0.6012,,0.6703,,0.602,,0.6134,,0.5137,,0.5771,,0.5973,,0.5588,,0.539,,0.5648,,0.4906,,0.5419,,0.6086,,0.712,,0.5656,,0.7196,,0.5742,,0.6454,,0.6427,,0.5558,,0.6133,,0.5946,,0.6318,,0.6599,,0.663
41,440132,,0.5406,,0.5611,,0.559,,0.62,,0.669,,0.6008,,0.6075,,0.5076,,0.5753,,0.5976,,0.5595,,0.5334,,0.5579,,0.4908,,0.5373,,0.606,,0.7415,,0.5649,,0.7018,,0.5644,,0.6468,,0.637,,0.5586,,0.611,,0.5877,,0.6429,,0.6585,,0.6409
42,450135,,0.5452,,0.5437,,0.556,,0.6254,,0.6731,,0.5988,,0.6138,,0.5155,,0.5764,,0.6013,,0.5578,,0.5403,,0.5616,,0.4934,,0.5368,,0.6178,,0.7119,,0.5568,,0.7219,,0.5785,,0.6442,,0.6427,,0.5614,,0.6084,,0.5855,,0.6402,,0.6502,,0.6459
43,460142,,0.539,,0.5573,,0.5556,,0.6094,,0.6617,,0.6022,,0.6237,,0.5083,,0.5758,,0.597,,0.5804,,0.546,,0.5644,,0.493,,0.5357,,0.6138,,0.6938,,0.5575,,0.7189,,0.5764,,0.6458,,0.6482,,0.5788,,0.6068,,0.5871,,0.6418,,0.6588,,0.6358
44,470132,,0.5357,,0.5445,,0.5486,,0.6168,,0.6772,,0.6015,,0.6165,,0.5105,,0.5671,,0.5935,,0.5631,,0.5433,,0.5632,,0.4851,,0.5371,,0.6039,,0.708,,0.5522,,0.7374,,0.5824,,0.6478,,0.6553,,0.5849,,0.5902,,0.5867,,0.6483,,0.6668,,0.6563
45,480132,,1.3412,,1.297,,1.1757,,1.2144,,1.1265,,1.1221,,1.341,,1.2789,,1.2465,,1.2043,,1.2724,,1.2138,,0.8588,,0.9238,,1.0422,,1.0888,,0.9907,,1.0026,,0.9983,,1.0506,,1.1764,,1.1389,,1.0438,,1.186,,0.8053,,1.1788,,1.1127,,1.1421
46,520811,,1.7313,,1.6149,,1.5143,,1.4215,,1.3044,,1.3452,,1.6647,,1.603,,1.5347,,1.5062,,1.5111,,1.5885,,1.1043,,1.07,,1.196,,1.2408,,1.0127,,1.3533,,0.9589,,1.2135,,1.3825,,1.3005,,1.0969,,1.3428,,1.3273,,1.296,,1.2232,,1.2489
47,530770,,1.4145,,1.3138,,1.3026,,1.2596,,1.1554,,1.2518,,1.4472,,1.5313,,1.3256,,1.2877,,1.0529,,1.7034,,0.9194,,1.519,,1.0825,,1.0518,,0.8685,,0.944,,0.8002,,1.0693,,1.2559,,1.0527,,0.9304,,1.0271,,1.0267,,1.1302,,1.0668,,1.1055
48,540769,,1.0423,,1.1852,,1.1609,,1.1325,,1.2109,,1.1084,,1.1741,,1.2712,,1.2302,,1.1591,,0.9336,,1.5126,,0.8025,,0.9897,,1.0255,,0.9486,,0.8087,,0.7272,,0.7294,,1.0023,,1.1322,,1.0327,,0.879,,0.9359,,0.8159,,1.0185,,1.0053,,1.0141
49,550769,,0.898,,0.9726,,0.9794,,1.0301,,1.1181,,1.0652,,1.0426,,1.0409,,1.1501,,1.068,,0.9085,,1.3585,,0.7551,,0.9478,,1.0486,,0.9135,,0.779,,0.7198,,0.6937,,0.9548,,0.9819,,1.0203,,0.8507,,0.9359,,0.731,,0.9857,,0.9652,,0.9779
50,560769,,0.9915,,1.0307,,0.9744,,1.0204,,1.1309,,1.1331,,1.1508,,1.1319,,1.1751,,1.0498,,1.0249,,1.3725,,0.7498,,0.9379,,1.1098,,0.9196,,0.8058,,0.7367,,0.7076,,0.9349,,0.9545,,0.9352,,0.8374,,0.981,,0.7066,,1.0206,,0.9925,,1.0012
51,570769,,0.9884,,1.1835,,1.0174,,1.0555,,1.0981,,1.0992,,1.1872,,1.2224,,1.1364,,1.0454,,0.9103,,1.3034,,0.7238,,0.877,,1.081,,0.9305,,0.8285,,0.751,,0.737,,0.9857,,1.1299,,0.9026,,0.8341,,0.9023,,0.7258,,1.0181,,0.9734,,0.9897
52,580768,,1.0374,,1.1589,,1.0195,,1.0427,,1.1172,,1.0978,,1.2288,,1.0192,,1.0412,,0.9999,,1.1539,,1.1486,,0.6979,,0.8363,,0.9707,,0.9328,,0.8658,,0.8025,,0.771,,0.8935,,0.9154,,0.9882,,0.8372,,0.8503,,0.7233,,1.0001,,0.9613,,0.9872
53,590769,,1.1382,,1.2105,,0.995,,1.0341,,1.0507,,1.1551,,1.1043,,1.0453,,0.9885,,0.9843,,1.0157,,1.1805,,0.6806,,0.7723,,0.8566,,0.9177,,0.8904,,0.7394,,0.8009,,0.8989,,0.8811,,1.038,,0.8099,,0.8949,,0.7014,,0.9772,,0.9367,,0.9489
54,600792,,1.1322,,1.1174,,1.0049,,1.0848,,0.9992,,1.1128,,1.0266,,1.2161,,0.9497,,0.9659,,0.9223,,1.1611,,0.6801,,0.7526,,0.7965,,0.9078,,0.8999,,0.7296,,0.8455,,0.9305,,0.9499,,0.9684,,0.8032,,0.9646,,0.6897,,0.9405,,0.905,,0.9113
55,610777,,1.0824,,1.147,,0.9622,,1.1267,,1.0464,,1.1934,,0.9468,,1.18,,0.9192,,0.9371,,0.9188,,0.9758,,0.6622,,0.7157,,0.7709,,0.9264,,0.9079,,0.7339,,0.85,,0.9374,,0.9066,,0.8914,,0.7828,,0.9371,,0.7028,,0.9038,,0.8717,,0.8797
56,620788,,1.0726,,1.2963,,0.92,,1.0998,,0.9904,,1.1608,,0.9095,,1.074,,0.8837,,0.9059,,0.9859,,0.9928,,0.6633,,0.6809,,0.7396,,0.9169,,0.8831,,0.7786,,0.8731,,0.8967,,0.9476,,0.9225,,0.7737,,0.9333,,0.7001,,0.8766,,0.8481,,0.8786
57,630767,,1.0094,,1.2226,,0.9083,,1.0319,,0.9826,,1.0799,,0.8771,,1.005,,0.8689,,0.8976,,0.9063,,0.9904,,0.6654,,0.7026,,0.7433,,0.8965,,0.8911,,0.7578,,0.893,,0.8397,,0.9229,,0.9266,,0.7585,,0.8668,,0.7066,,0.853,,0.8294,,0.848
58,640766,,0.9812,,1.1023,,0.9155,,1.0014,,0.9824,,1.0065,,0.8776,,0.9108,,0.8365,,0.8665,,0.9673,,0.9294,,0.6357,,0.7128,,0.7495,,0.8897,,0.8815,,0.7197,,0.8853,,0.8616,,0.9071,,0.9154,,0.7518,,0.9349,,0.7267,,0.8425,,0.8206,,0.8192
59,650766,,0.9456,,1.0896,,0.8822,,1.0461,,0.9649,,0.9926,,0.8498,,0.9585,,0.8266,,0.8512,,0.9517,,0.8753,,0.618,,0.715,,0.7409,,0.8706,,0.8733,,0.7155,,0.8787,,0.8755,,0.8868,,0.8901,,0.7459,,0.9456,,0.7074,,0.8166,,0.8131,,0.8114
60,660765,,0.8994,,0.9573,,0.8413,,1.075,,0.9514,,1.0153,,0.8521,,0.9121,,0.8161,,0.8439,,0.9842,,0.8548,,0.6428,,0.7236,,0.7376,,0.8737,,0.8752,,0.7339,,0.8689,,0.8716,,0.8339,,0.8837,,0.735,,0.8587,,0.694,,0.8179,,0.8052,,0.8167
61,670765,,0.8948,,0.9575,,0.8015,,0.9931,,0.9494,,0.9846,,0.8206,,0.8416,,0.8014,,0.8284,,0.9682,,0.8319,,0.6355,,0.7168,,0.7258,,0.8623,,0.8656,,0.7344,,0.8802,,0.8882,,0.8458,,0.8721,,0.7395,,0.7961,,0.6927,,0.8302,,0.7966,,0.8034
62,680765,,0.8779,,0.8882,,0.7742,,0.9673,,0.9482,,0.9112,,0.8216,,0.8263,,0.8061,,0.8349,,0.888,,0.803,,0.6152,,0.7234,,0.7253,,0.8658,,0.8566,,0.6876,,0.8799,,0.8114,,0.8899,,0.866,,0.7252,,0.7481,,0.6817,,0.8104,,0.8054,,0.8062
63,690766,,0.8313,,0.9155,,0.7346,,0.9763,,0.9112,,1.0243,,0.8116,,0.871,,0.8281,,0.8282,,0.8506,,0.7838,,0.5995,,0.7364,,0.7242,,0.8519,,0.8404,,0.6941,,0.8666,,0.7544,,0.8325,,0.8296,,0.724,,0.7405,,0.6701,,0.8157,,0.799,,0.813
64,700765,,0.8335,,0.8691,,0.7223,,0.9283,,0.9096,,0.9487,,0.7989,,0.8258,,0.8525,,0.8619,,0.7922,,0.779,,0.6222,,0.7401,,0.7247,,0.8523,,0.8482,,0.6866,,0.8706,,0.7417,,0.7974,,0.8167,,0.7236,,0.7356,,0.664,,0.8223,,0.8047,,0.8186
65,710765,,0.8037,,0.9069,,0.6909,,0.9366,,0.899,,0.9378,,0.7804,,0.7524,,0.795,,0.8149,,0.7693,,0.7534,,0.6081,,0.7313,,0.7131,,0.846,,0.8399,,0.6914,,0.8711,,0.7406,,0.76,,0.797,,0.7165,,0.7355,,0.6584,,0.8137,,0.8021,,0.7981
66,720765,,0.7753,,0.8793,,0.6669,,0.9702,,0.8703,,0.8493,,0.7792,,0.7294,,0.8078,,0.8039,,0.7367,,0.7343,,0.594,,0.7204,,0.711,,0.8527,,0.828,,0.6937,,0.865,,0.769,,0.7462,,0.7859,,0.7165,,0.7188,,0.6589,,0.8204,,0.799,,0.8021
67,730764,,0.7341,,0.8471,,0.6669,,0.9205,,0.8588,,0.871,,0.7652,,0.7091,,0.8151,,0.8197,,0.7526,,0.7611,,0.6258,,0.7111,,0.7173,,0.8411,,0.8353,,0.6595,,0.8498,,0.7185,,0.7371,,0.7821,,0.6954,,0.7121,,0.6592,,0.8125,,0.7969,,0.8081
68,740763,,0.7134,,0.8228,,0.6497,,0.8792,,0.8358,,0.837,,0.7447,,0.686,,0.8283,,0.839,,0.7141,,0.7325,,0.5822,,0.7546,,0.7005,,0.8389,,0.8279,,0.6397,,0.8261,,0.7034,,0.7466,,0.7833,,0.6965,,0.7169,,0.6462,,0.8072,,0.7969,,0.796
69,750763,,0.7054,,0.8183,,0.6335,,0.863,,0.8389,,0.7801,,0.7583,,0.6837,,0.8247,,0.7929,,0.7043,,0.7185,,0.5788,,0.7218,,0.7008,,0.8356,,0.8226,,0.62,,0.842,,0.7093,,0.7374,,0.7798,,0.6988,,0.7197,,0.6489,,0.8164,,0.7904,,0.8104
70,760765,,0.6747,,0.7477,,0.6212,,0.854,,0.837,,0.7588,,0.742,,0.6809,,0.8119,,0.8028,,0.6902,,0.7833,,0.5697,,0.6812,,0.7028,,0.8378,,0.8184,,0.6116,,0.8427,,0.6726,,0.7423,,0.76,,0.6947,,0.7157,,0.6493,,0.7967,,0.7854,,0.8016
71,770763,,0.6483,,0.7144,,0.6162,,0.8395,,0.8079,,0.7294,,0.7336,,0.6727,,0.8169,,0.818,,0.6749,,0.7518,,0.5791,,0.774,,0.6989,,0.8341,,0.8164,,0.6173,,0.845,,0.6742,,0.74,,0.7649,,0.6906,,0.7061,,0.6521,,0.8074,,0.7879,,0.8069
72,780762,,0.646,,0.7021,,0.6043,,0.8265,,0.8162,,0.7235,,0.7389,,0.6628,,0.8019,,0.8362,,0.6691,,0.7499,,0.574,,0.6501,,0.7015,,0.832,,0.8336,,0.6074,,0.8341,,0.6826,,0.7011,,0.7453,,0.688,,0.7004,,0.653,,0.8119,,0.7851,,0.8025
73,832289,,0.5965,,0.6142,,0.5885,,0.7447,,0.7663,,0.6638,,0.7651,,0.5952,,0.8641,,0.8819,,0.6533,,1.0912,,0.6383,,0.7276,,0.7007,,0.8228,,0.8112,,0.6139,,0.8494,,0.6545,,0.6804,,0.7431,,0.6996,,0.6603,,0.6561,,0.8094,,0.807,,0.8166
74,842277,,0.5841,,0.59,,0.5928,,0.7263,,0.7477,,0.6421,,0.7336,,0.5704,,0.7728,,0.752,,0.6544,,0.7661,,0.6189,,0.6427,,0.6889,,0.8069,,0.7985,,0.5992,,0.8378,,0.6408,,0.6704,,0.7148,,0.6766,,0.6306,,0.6365,,0.8118,,0.7941,,0.8114
75,852276,,0.575,,0.5728,,0.5804,,0.7133,,0.7434,,0.6432,,0.7214,,0.5661,,0.7971,,0.7769,,0.642,,0.8796,,0.6055,,0.6158,,0.6847,,0.7947,,0.8073,,0.5818,,0.8204,,0.6256,,0.6653,,0.712,,0.6681,,0.6218,,0.6327,,0.8077,,0.7825,,0.7904
76,862276,,0.565,,0.5652,,0.572,,0.7005,,0.7321,,0.6359,,0.7093,,0.5545,,0.7752,,0.7545,,0.6238,,0.8107,,0.5987,,0.5899,,0.6752,,0.7904,,0.812,,0.555,,0.8068,,0.6231,,0.6618,,0.6928,,0.6678,,0.6015,,0.6091,,0.8033,,0.781,,0.7766
77,872276,,0.5668,,0.5876,,0.5777,,0.6939,,0.7371,,0.6354,,0.6955,,0.5465,,0.7776,,0.7917,,0.6142,,0.7989,,0.5786,,0.6328,,0.6725,,0.7921,,0.8095,,0.5607,,0.8119,,0.623,,0.6548,,0.6955,,0.656,,0.6161,,0.6148,,0.7928,,0.7989,,0.7998
78,882276,,0.5718,,0.5727,,0.5698,,0.7048,,0.7227,,0.6199,,0.7078,,0.5411,,0.8063,,0.775,,0.6084,,0.8271,,0.5791,,0.6421,,0.6762,,0.7993,,0.8054,,0.5687,,0.8052,,0.6281,,0.6665,,0.689,,0.641,,0.6078,,0.6252,,0.8001,,0.7773,,0.7731
79,892274,,0.5562,,0.5791,,0.574,,0.6858,,0.7332,,0.6166,,0.7055,,0.5307,,0.7557,,0.7786,,0.6095,,0.7751,,0.5781,,0.6453,,0.664,,0.7943,,0.8089,,0.5558,,0.8013,,0.6143,,0.6639,,0.6829,,0.6363,,0.5996,,0.6146,,0.7919,,0.7826,,0.7933
80,902274,,0.5499,,0.5777,,0.5621,,0.6913,,0.722,,0.6118,,0.7059,,0.5385,,0.7983,,0.7643,,0.6027,,0.7656,,0.6008,,0.6802,,0.6663,,0.7952,,0.8099,,0.5607,,0.7936,,0.6142,,0.6579,,0.6775,,0.642,,0.6007,,0.6129,,0.7969,,0.779,,0.8066
81,912275,,0.5714,,0.5812,,0.5667,,0.6799,,0.7305,,0.6202,,0.7148,,0.5415,,0.7628,,0.7625,,0.5983,,0.7798,,0.6003,,0.6989,,0.6547,,0.8028,,0.815,,0.5508,,0.7987,,0.6192,,0.6653,,0.6773,,0.6426,,0.6105,,0.6205,,0.8015,,0.7828,,0.7961
82,922274,,0.5616,,0.5775,,0.558,,0.6791,,0.7317,,0.6163,,0.7079,,0.5406,,0.8162,,0.7774,,0.6012,,0.7917,,0.5819,,0.6671,,0.6644,,0.7863,,0.8052,,0.5558,,0.8046,,0.6126,,0.6505,,0.6743,,0.6354,,0.5997,,0.6112,,0.8102,,0.7706,,0.7964
83,932273,,0.559,,0.5628,,0.5626,,0.6776,,0.7378,,0.6122,,0.7012,,0.5504,,0.7719,,0.7465,,0.5841,,0.8068,,0.5945,,0.6516,,0.6676,,0.7976,,0.8065,,0.5725,,0.8145,,0.61,,0.66,,0.6744,,0.6369,,0.6018,,0.6138,,0.7957,,0.7826,,0.7876
84,942274,,0.5482,,0.5612,,0.5686,,0.6771,,0.7161,,0.6098,,0.6967,,0.5342,,0.7625,,0.7568,,0.5807,,0.7902,,0.5946,,0.7023,,0.6624,,0.7947,,0.8027,,0.556,,0.7996,,0.6053,,0.665,,0.6663,,0.6216,,0.5961,,0.6091,,0.7867,,0.7852,,0.7935
85,952273,,0.5572,,0.5719,,0.5611,,0.6834,,0.7299,,0.6123,,0.7136,,0.5362,,0.7487,,0.7257,,0.5882,,0.7695,,0.5784,,0.6803,,0.664,,0.7797,,0.8034,,0.5597,,0.8041,,0.6147,,0.6747,,0.67,,0.6331,,0.6145,,0.6098,,0.8026,,0.7742,,0.7789
86,962272,,0.5496,,0.5736,,0.5652,,0.6717,,0.7255,,0.6127,,0.7277,,0.5405,,0.7733,,0.7371,,0.5857,,0.7772,,0.5662,,0.6387,,0.6522,,0.7858,,0.8044,,0.6076,,0.8074,,0.6061,,0.6686,,0.6697,,0.6277,,0.6058,,0.6182,,0.7851,,0.777,,0.7926
87,972273,,0.546,,0.5575,,0.5582,,0.6623,,0.7104,,0.5952,,0.7303,,0.5337,,0.7716,,0.736,,0.5706,,0.7318,,0.5582,,0.6709,,0.6636,,0.7815,,0.7901,,0.5675,,0.8008,,0.6006,,0.6613,,0.68,,0.6272,,0.6091,,0.6171,,0.7966,,0.7759,,0.7743
88,982272,,0.5474,,0.5574,,0.5545,,0.6494,,0.716,,0.5971,,0.7212,,0.5337,,0.7487,,0.7226,,0.5626,,0.7648,,0.5579,,0.6727,,0.6531,,0.7879,,0.7869,,0.5471,,0.7918,,0.5995,,0.6638,,0.6617,,0.6283,,0.6,,0.609,,0.7848,,0.7876,,0.7839
89,992271,,0.5509,,0.5606,,0.5564,,0.6734,,0.7169,,0.6049,,0.7311,,0.5268,,0.7746,,0.7355,,0.5531,,0.7094,,0.5568,,0.6496,,0.6497,,0.7779,,0.7938,,0.5424,,0.7976,,0.5992,,0.6554,,0.6579,,0.6324,,0.5978,,0.6184,,0.7986,,0.7761,,0.7706
90,1002271,,0.5382,,0.5595,,0.5622,,0.6636,,0.7234,,0.6059,,0.717,,0.5287,,0.7667,,0.7511,,0.5524,,0.7809,,0.5637,,0.6416,,0.6515,,0.7901,,0.7949,,0.5521,,0.7902,,0.6004,,0.6649,,0.6671,,0.6287,,0.6015,,0.614,,0.7911,,0.7829,,0.801
91,1012274,,0.554,,0.5577,,0.5547,,0.6601,,0.7086,,0.6061,,0.6969,,0.5169,,0.7584,,0.7524,,0.5576,,0.757,,0.5931,,0.6011,,0.6498,,0.799,,0.7947,,0.5415,,0.7849,,0.6004,,0.6602,,0.6479,,0.6252,,0.6022,,0.616,,0.803,,0.7811,,0.8022
92,1022272,,0.5533,,0.5551,,0.5692,,0.6496,,0.7029,,0.6019,,0.7101,,0.5214,,0.7206,,0.6874,,0.5544,,0.7204,,0.5717,,0.6242,,0.6535,,0.7945,,0.7824,,0.5588,,0.7951,,0.6004,,0.6507,,0.6546,,0.6257,,0.608,,0.6148,,0.7966,,0.7699,,0.8006
93,1032270,,0.5502,,0.556,,0.5498,,0.6509,,0.7022,,0.61,,0.7075,,0.5218,,0.7367,,0.6995,,0.5472,,0.7127,,0.5631,,0.6378,,0.6452,,0.7857,,0.7884,,0.5521,,0.7926,,0.5922,,0.6602,,0.6592,,0.6296,,0.5993,,0.614,,0.8059,,0.7783,,0.7826
94,1042271,,0.5545,,0.5638,,0.5514,,0.662,,0.7212,,0.6083,,0.7107,,0.525,,0.783,,0.7819,,0.5614,,0.7706,,0.551,,0.6253,,0.6523,,0.7813,,0.7942,,0.5521,,0.7971,,0.6055,,0.6556,,0.6609,,0.6239,,0.6008,,0.6124,,0.7988,,0.7815,,0.7688
95,1052270,,0.5507,,0.5522,,0.5578,,0.661,,0.724,,0.6057,,0.7102,,0.5283,,0.7273,,0.7273,,0.5604,,0.773,,0.5501,,0.6178,,0.6492,,0.7767,,0.7835,,0.5604,,0.7887,,0.5938,,0.6544,,0.6677,,0.6318,,0.5882,,0.6214,,0.7997,,0.7805,,0.7888
96,1062270,,0.5571,,0.5473,,0.5488,,0.6572,,0.714,,0.6088,,0.7016,,0.5275,,0.6884,,0.7029,,0.5594,,0.6927,,0.5516,,0.6598,,0.632,,0.765,,0.7926,,0.5479,,0.7791,,0.5949,,0.6543,,0.6731,,0.626,,0.5921,,0.612,,0.7949,,0.7745,,0.7803
97,1108165,,0.7715,,0.7727,,0.7323,,0.7843,,0.9701,,0.8009,,0.9021,,0.7011,,1.2202,,1.1646,,0.6696,,1.0065,,0.8877,,0.9962,,0.9733,,1.1095,,1.1267,,0.7291,,1.0504,,0.7352,,0.8659,,0.8326,,0.8732,,0.7452,,0.7786,,1.1184,,1.077,,1.1167
98,1118181,,0.5922,,0.6232,,0.6261,,0.6937,,0.7891,,0.682,,0.7959,,0.6069,,1.0561,,0.9814,,0.6176,,0.794,,0.7267,,0.7412,,0.783,,0.8348,,0.8601,,0.6445,,0.8894,,0.6723,,0.7591,,0.7259,,0.7572,,0.706,,0.7595,,0.8786,,0.8588,,0.8608
99,1128158,,0.6192,,0.6335,,0.6594,,0.7173,,0.8129,,0.7091,,0.8175,,0.6282,,1.119,,1.1136,,0.6278,,0.8127,,0.7504,,0.7442,,0.8214,,0.8519,,0.8845,,0.6631,,0.8779,,0.7032,,0.7707,,0.7549,,0.7695,,0.7216,,0.7907,,0.9028,,0.8847,,0.8858
100,1138159,,0.6397,,0.6522,,0.6687,,0.7271,,0.8189,,0.7338,,0.8343,,0.6472,,1.0357,,1.0366,,0.669,,0.8301,,0.7504,,0.7635,,0.8307,,0.8511,,0.9059,,0.6801,,0.8527,,0.7074,,0.7844,,0.7593,,0.7729,,0.7295,,0.8085,,0.885,,0.8845,,0.8787
101,1148156,,0.6559,,0.6992,,0.6932,,0.7174,,0.8246,,0.7205,,0.8507,,0.6706,,0.9726,,1.0114,,0.6744,,0.8593,,0.7675,,0.7639,,0.833,,0.8471,,0.8855,,0.697,,0.8446,,0.7071,,0.7912,,0.7738,,0.7764,,0.7435,,0.8189,,0.8843,,0.8729,,0.8618
102,1158158,,0.6711,,0.708,,0.7031,,0.735,,0.8283,,0.7299,,0.8421,,0.6881,,0.9655,,0.9834,,0.6879,,0.8945,,0.7703,,0.7752,,0.8421,,0.8504,,0.8757,,0.6961,,0.829,,0.7182,,0.804,,0.7663,,0.7694,,0.7373,,0.829,,0.8622,,0.8524,,0.8521
103,1168157,,0.6837,,0.7487,,0.7156,,0.7486,,0.8431,,0.7343,,0.8544,,0.6931,,0.9641,,0.9837,,0.7018,,0.9385,,0.7724,,0.7681,,0.8254,,0.8556,,0.8722,,0.7137,,0.8147,,0.7185,,0.81,,0.7698,,0.7806,,0.7537,,0.848,,0.853,,0.8441,,0.8528
104,1178156,,0.7006,,0.7481,,0.7246,,0.7589,,0.8471,,0.7347,,0.8612,,0.6993,,0.9617,,0.9724,,0.7332,,1.1717,,0.7782,,0.7726,,0.8381,,0.852,,0.854,,0.7168,,0.8119,,0.7227,,0.8064,,0.7787,,0.7567,,0.7547,,0.8363,,0.8573,,0.8365,,0.8592
105,1188156,,0.716,,0.7675,,0.73,,0.7563,,0.8419,,0.7487,,0.8577,,0.6961,,0.9584,,0.9682,,0.7309,,1.3331,,0.7795,,0.7808,,0.8371,,0.8448,,0.8521,,0.7336,,0.7974,,0.7277,,0.8147,,0.7811,,0.7608,,0.753,,0.8445,,0.8621,,0.8386,,0.8501
106,1198155,,0.7396,,0.7672,,0.7277,,0.7732,,0.8565,,0.7401,,0.8663,,0.7174,,0.9346,,0.9545,,0.7574,,1.2179,,0.7907,,0.7972,,0.8336,,0.8511,,0.854,,0.7078,,0.7923,,0.7257,,0.8239,,0.7899,,0.7713,,0.7539,,0.8398,,0.8512,,0.8381,,0.8465
107,1208156,,0.7315,,0.7867,,0.7391,,0.7688,,0.8717,,0.747,,0.8825,,0.7182,,0.9363,,0.9539,,0.7455,,1.1775,,0.7969,,0.7996,,0.8451,,0.8625,,0.8582,,0.7355,,0.7823,,0.7259,,0.825,,0.7947,,0.7938,,0.7604,,0.8518,,0.8637,,0.8366,,0.8513
108,1218155,,0.7501,,0.7839,,0.7375,,0.7636,,0.8538,,0.7579,,0.8972,,0.7131,,0.9281,,0.9295,,0.7695,,1.0756,,0.807,,0.8257,,0.836,,0.8664,,0.8479,,0.7291,,0.7791,,0.7194,,0.8357,,0.7876,,0.7832,,0.7564,,0.8419,,0.8776,,0.8498,,0.8629
109,1228156,,0.7388,,0.7842,,0.7246,,0.7453,,0.851,,0.7465,,0.8919,,0.7193,,0.9115,,0.9205,,0.7699,,1.0312,,0.8072,,0.8272,,0.8411,,0.8805,,0.8565,,0.7224,,0.7904,,0.7102,,0.8282,,0.7857,,0.782,,0.7467,,0.8334,,0.8727,,0.8498,,0.8712
110,1238160,,0.7503,,0.7901,,0.7242,,0.7427,,0.8491,,0.7608,,0.9131,,0.7032,,0.9011,,0.8935,,0.7676,,0.9561,,0.8156,,0.8436,,0.839,,0.899,,0.8536,,0.7283,,0.793,,0.7193,,0.8386,,0.7951,,0.7975,,0.7632,,0.8268,,0.9015,,0.858,,0.8764
111,1248159,,0.7435,,0.796,,0.7318,,0.7446,,0.8509,,0.7428,,0.9018,,0.725,,0.8675,,0.8746,,0.7639,,0.8904,,0.8243,,0.8545,,0.8358,,0.9179,,0.8607,,0.736,,0.7805,,0.7244,,0.8329,,0.8033,,0.7927,,0.7534,,0.8148,,0.9037,,0.8819,,0.9045
112,1258155,,0.7502,,0.7872,,0.7332,,0.7356,,0.8439,,0.7457,,0.8947,,0.7179,,0.851,,0.8623,,0.7658,,0.8373,,0.8943,,0.8632,,0.8307,,0.919,,0.8592,,0.7342,,0.7826,,0.7114,,0.8373,,0.7985,,0.7982,,0.7649,,0.8016,,0.9017,,0.8781,,0.8966