Frame,Time (ms),,Mean Intensity ,,Mean Intensity ,,Mean Intensity ,,Mean Intensity ,,Mean Intensity ,,Mean Intensity ,,Mean Intensity ,,Mean Intensity ,,Mean Intensity ,,Mean Intensity ,,Mean Intensity ,,Mean Intensity ,,Mean Intensity ,,Mean Intensity ,,Mean Intensity ,,Mean Intensity ,,Mean Intensity ,,Mean Intensity ,,Mean Intensity ,,Mean Intensity ,,Mean Intensity ,,Mean Intensity ,,Mean Intensity ,,Mean Intensity ,,Mean Intensity ,,Mean Intensity ,,Mean Intensity ,,Mean Intensity 
0,807,,0.6987,,0.6006,,0.7156,,0.7001,,0.6596,,0.6881,,0.6449,,0.6709,,0.748,,0.5722,,0.5629,,0.5818,,0.6252,,0.5462,,0.5389,,0.6197,,0.736,,0.5091,,0.5194,,0.8644,,0.6263,,0.8102,,0.596,,0.5819,,0.564,,0.7463,,0.5668,,0.7084
1,11605,,0.6849,,0.598,,0.7221,,0.6991,,0.6698,,0.6813,,0.6432,,0.6609,,0.7629,,0.5571,,0.5487,,0.5793,,0.6319,,0.5362,,0.5331,,0.6086,,0.7066,,0.4991,,0.5101,,0.8403,,0.6237,,0.7885,,0.5934,,0.5722,,0.5677,,0.7496,,0.5773,,0.7056
2,21610,,0.6842,,0.6119,,0.7261,,0.7143,,0.6633,,0.6938,,0.6409,,0.6726,,0.7651,,0.5632,,0.5482,,0.5814,,0.6322,,0.53,,0.5315,,0.5979,,0.7129,,0.5014,,0.5201,,0.8337,,0.6193,,0.8084,,0.6048,,0.5737,,0.5785,,0.7637,,0.5583,,0.709
3,31616,,0.6837,,0.6117,,0.7286,,0.6995,,0.6728,,0.6995,,0.6413,,0.6794,,0.7399,,0.5549,,0.5581,,0.5847,,0.6283,,0.553,,0.5412,,0.6101,,0.7391,,0.5035,,0.5128,,0.8472,,0.6226,,0.801,,0.6068,,0.5816,,0.5695,,0.7407,,0.5655,,0.7035
4,41615,,0.6831,,0.5991,,0.7218,,0.7055,,0.6535,,0.6973,,0.6444,,0.6699,,0.7234,,0.5651,,0.559,,0.5906,,0.6468,,0.5615,,0.5369,,0.6188,,0.7276,,0.5117,,0.5072,,0.8345,,0.6282,,0.8026,,0.5955,,0.5826,,0.5724,,0.7517,,0.569,,0.7099
5,51614,,0.6828,,0.6194,,0.7309,,0.7276,,0.659,,0.6939,,0.6449,,0.6663,,0.7431,,0.5725,,0.5555,,0.6012,,0.6069,,0.5468,,0.5319,,0.6156,,0.7676,,0.5052,,0.5241,,0.8486,,0.6156,,0.8007,,0.6078,,0.5809,,0.574,,0.7511,,0.5592,,0.6997
6,61614,,0.6873,,0.6212,,0.7142,,0.7065,,0.6675,,0.6987,,0.6526,,0.6875,,0.751,,0.5596,,0.5534,,0.5953,,0.6176,,0.5446,,0.5355,,0.6147,,0.7563,,0.5085,,0.5294,,0.8587,,0.6225,,0.8115,,0.6079,,0.5802,,0.5806,,0.7549,,0.5698,,0.7194
7,71613,,0.6772,,0.6022,,0.7261,,0.7103,,0.6519,,0.6981,,0.6494,,0.6833,,0.7466,,0.5681,,0.5557,,0.5974,,0.6382,,0.5608,,0.5336,,0.6134,,0.7088,,0.4972,,0.528,,0.8554,,0.6228,,0.8164,,0.6017,,0.5716,,0.563,,0.7742,,0.5683,,0.675
8,81612,,0.6881,,0.6184,,0.7199,,0.698,,0.6669,,0.6902,,0.6491,,0.6778,,0.7453,,0.5755,,0.5537,,0.5935,,0.646,,0.5667,,0.5423,,0.6028,,0.7684,,0.4976,,0.5288,,0.832,,0.6224,,0.8131,,0.5975,,0.5813,,0.5779,,0.7743,,0.5654,,0.7178
9,91613,,0.6771,,0.6085,,0.723,,0.7037,,0.662,,0.6959,,0.6543,,0.6759,,0.7386,,0.5694,,0.5592,,0.5916,,0.8728,,0.5658,,0.5414,,0.6027,,0.7483,,0.5063,,0.5248,,0.8344,,0.6189,,0.7987,,0.5979,,0.5763,,0.5726,,0.7981,,0.5642,,0.7138
10,101612,,0.6951,,0.6105,,0.7284,,0.7087,,0.6668,,0.7517,,0.6599,,0.6884,,0.7636,,0.5728,,0.5703,,0.6001,,0.8949,,0.5741,,0.5374,,0.616,,0.761,,0.511,,0.5158,,0.8443,,0.6216,,0.81,,0.6028,,0.5776,,0.5655,,0.7751,,0.5743,,0.7193
11,111611,,0.6957,,0.6102,,0.7291,,0.7097,,0.6762,,0.9446,,0.6879,,0.6808,,0.7689,,0.5712,,0.5658,,0.5941,,0.9003,,0.5455,,0.5361,,0.5944,,0.7841,,0.51,,0.5175,,0.8478,,0.6281,,0.8227,,0.6015,,0.5751,,0.5816,,0.7873,,0.5702,,0.7081
12,121610,,0.6882,,0.6204,,0.744,,0.7001,,0.6765,,0.9449,,0.664,,0.6752,,0.7623,,0.5701,,0.5759,,0.5925,,0.9137,,0.5567,,0.5497,,0.5902,,0.771,,0.5138,,0.5207,,0.8631,,0.6181,,0.8066,,0.5955,,0.5815,,0.5768,,0.7915,,0.5811,,0.7002
13,131611,,0.6856,,0.6167,,0.7579,,0.6946,,0.6662,,0.8771,,0.6901,,0.6732,,0.7457,,0.558,,0.5655,,0.5926,,0.9432,,0.5693,,0.5504,,0.5927,,0.7567,,0.5136,,0.5263,,0.8529,,0.6182,,0.8224,,0.5924,,0.5797,,0.5824,,0.78,,0.557,,0.6962
14,176268,,0.6908,,0.6076,,0.9082,,0.7083,,0.6653,,0.9743,,0.7063,,0.6702,,0.758,,0.5664,,0.5789,,0.5981,,0.7776,,0.5539,,0.5486,,0.5779,,0.7443,,0.5272,,0.5312,,0.8713,,0.6185,,0.8058,,0.6049,,0.5805,,0.5931,,0.8261,,0.5716,,0.9627
15,186251,,0.6766,,0.6077,,0.77,,0.7014,,0.6775,,0.939,,0.7187,,0.6792,,0.7379,,0.5652,,0.5578,,0.5807,,0.6101,,0.5478,,0.5582,,0.5852,,0.7545,,0.5268,,0.5443,,0.8646,,0.6256,,0.8074,,0.6163,,0.5863,,0.5924,,0.7661,,0.5438,,0.8995
16,196259,,0.7001,,0.6215,,0.7391,,0.6905,,0.6642,,0.8698,,0.6904,,0.6849,,0.731,,0.5699,,0.5555,,0.5792,,0.5894,,0.5347,,0.5599,,0.5802,,0.7199,,0.5285,,0.5221,,0.8746,,0.6097,,0.7996,,0.6703,,0.5778,,0.5719,,0.7513,,0.561,,0.8668
17,206249,,0.6853,,0.623,,0.7275,,0.6734,,0.6702,,0.8791,,0.6998,,0.6737,,0.7171,,0.5611,,0.5565,,0.5861,,0.579,,0.5408,,0.5381,,0.5669,,0.7437,,0.5172,,0.5345,,0.8779,,0.6216,,0.7981,,0.6235,,0.5806,,0.5662,,0.7573,,0.558,,0.9601
18,216249,,0.6818,,0.6171,,0.7165,,0.6906,,0.6591,,0.8696,,0.694,,0.6778,,0.7168,,0.5591,,0.5669,,0.5832,,0.5955,,0.5422,,0.5502,,0.5733,,0.7273,,0.4995,,0.5153,,0.9226,,0.6219,,0.809,,0.6017,,0.5844,,0.581,,0.7591,,0.5489,,0.9725
19,226249,,0.6821,,0.6151,,0.7138,,0.7203,,0.6597,,0.8538,,0.7528,,0.6779,,0.7136,,0.5684,,0.5574,,0.5991,,0.5773,,0.5556,,0.5374,,0.5873,,0.7301,,0.5092,,0.5326,,0.9187,,0.6261,,0.821,,0.6126,,0.5855,,0.5732,,0.7497,,0.5508,,0.9317
20,236269,,0.6837,,0.6133,,0.7169,,0.6922,,0.6598,,0.7988,,0.9118,,0.6714,,0.7148,,0.5603,,0.5646,,0.5789,,0.5791,,0.5465,,0.5394,,0.5803,,0.7173,,0.5075,,0.5231,,0.9184,,0.6192,,0.8007,,0.5969,,0.5867,,0.5827,,0.7567,,0.551,,0.8972
21,276283,,0.8786,,1.1665,,1.3224,,1.3388,,1.2559,,1.3696,,0.8797,,1.1217,,0.8511,,1.1783,,0.6502,,0.746,,1.6132,,1.0651,,1.322,,0.6348,,0.7796,,1.6059,,1.3723,,0.784,,0.6905,,1.0638,,1.0706,,1.0031,,1.4986,,1.3115,,1.2118,,0.9262
22,286278,,1.3079,,1.4754,,1.4768,,1.5622,,1.5938,,1.7521,,1.3804,,1.3747,,1.3721,,1.6782,,1.5312,,1.6973,,1.6144,,1.1694,,1.8012,,1.634,,0.9061,,1.8364,,1.8064,,0.8502,,0.6676,,0.9858,,1.11,,1.0206,,1.6832,,1.2578,,1.599,,0.8061
23,296279,,1.2304,,1.4105,,1.7959,,1.5013,,1.4981,,1.8944,,1.5173,,1.3715,,1.6526,,1.5008,,1.3345,,1.5094,,1.3684,,1.1923,,1.612,,1.5832,,1.0065,,2.1624,,1.5714,,0.9383,,0.6603,,0.946,,1.1589,,1.0624,,1.794,,1.3305,,1.4717,,0.8282
24,306277,,1.089,,1.345,,1.7628,,1.503,,1.4511,,1.8036,,1.5277,,1.3413,,1.6322,,1.4616,,1.2377,,1.3533,,1.0633,,1.2,,1.5889,,1.4772,,1.0199,,2.2061,,1.586,,1.0458,,0.6599,,0.9369,,1.1373,,1.0402,,1.7741,,1.3477,,1.4144,,0.7995
25,316277,,1.0404,,1.196,,1.7607,,1.4402,,1.4037,,1.6486,,1.3962,,1.2953,,1.4721,,1.3791,,1.0279,,1.2646,,0.9411,,1.0796,,1.5186,,1.3243,,0.9798,,2.1099,,1.4974,,1.0167,,0.661,,0.9253,,1.081,,0.9992,,1.7026,,1.2747,,1.4937,,0.843
26,326281,,1.0183,,1.24,,1.7387,,1.4421,,1.3139,,1.5139,,1.1696,,1.291,,1.2849,,1.2627,,0.8855,,1.1614,,0.8973,,1.0091,,1.448,,1.2565,,0.9448,,1.9593,,1.4279,,1.0275,,0.6573,,0.9256,,0.9634,,0.9711,,1.5688,,1.2162,,1.3972,,0.8161
27,336278,,0.9109,,1.1802,,1.7358,,1.4047,,1.2699,,1.3924,,1.0222,,1.2544,,1.1215,,1.2262,,0.8587,,1.084,,0.76,,0.9297,,1.4442,,1.1829,,0.9782,,1.8277,,1.4598,,1.0146,,0.6498,,0.9232,,0.9058,,0.9375,,1.3499,,1.1058,,1.3079,,0.7951
28,346277,,0.8544,,1.2115,,1.6289,,1.3129,,1.2222,,1.199,,0.9301,,1.2336,,1.0034,,1.2683,,0.8256,,1.1396,,0.8211,,0.9114,,1.3777,,1.1602,,0.9253,,1.5935,,1.4469,,0.97,,0.6592,,0.9379,,0.8454,,0.874,,1.058,,1.0197,,1.2269,,0.8085
29,356276,,0.8397,,1.1353,,1.4742,,1.2637,,1.2472,,1.0648,,0.8825,,1.2372,,0.9015,,1.2157,,0.843,,1.1628,,0.727,,0.8746,,1.3777,,1.127,,0.8459,,1.3263,,1.3314,,0.9552,,0.6502,,0.9248,,0.7998,,0.816,,0.8634,,0.9568,,1.2251,,0.8267
30,366276,,0.8651,,1.1229,,1.2274,,1.2583,,1.2448,,0.979,,0.8393,,1.2162,,0.815,,1.2018,,0.8217,,1.115,,0.6327,,0.876,,1.3456,,1.0409,,0.8234,,0.9819,,1.3331,,0.9317,,0.6514,,0.9065,,0.7527,,0.7558,,0.7383,,0.9308,,1.1687,,0.7856
31,376275,,0.8168,,1.1352,,0.9956,,1.2533,,1.213,,0.8953,,0.8454,,1.214,,0.7601,,1.2556,,0.7707,,1.0043,,0.6281,,0.8836,,1.3314,,1.0305,,0.7743,,0.8039,,1.3108,,0.9272,,0.6426,,0.9014,,0.7321,,0.7109,,0.6797,,0.9141,,1.1495,,0.7795
32,386276,,0.7837,,1.1076,,0.8832,,1.2476,,1.1901,,0.8302,,0.8076,,1.1742,,0.7118,,1.1167,,0.7347,,0.951,,0.6087,,0.8967,,1.2973,,0.9632,,0.7292,,0.7187,,1.2667,,0.9246,,0.6441,,0.8953,,0.7129,,0.6829,,0.6722,,0.9175,,1.158,,0.8098
33,396276,,0.7768,,1.0997,,0.8354,,1.211,,1.1466,,0.7915,,0.8158,,1.1559,,0.6963,,1.0684,,0.703,,0.9079,,0.6093,,0.8471,,1.2094,,0.9476,,0.6969,,0.6807,,1.2442,,0.8895,,0.6466,,0.9136,,0.7161,,0.646,,0.6478,,0.9092,,1.0275,,0.7688
34,406274,,0.7792,,1.0633,,0.7988,,1.1873,,1.0689,,0.767,,0.8064,,1.1436,,0.6787,,1.0472,,0.6812,,0.8482,,0.6223,,0.8628,,1.2012,,0.8972,,0.6937,,0.6513,,1.177,,0.9385,,0.6452,,0.8701,,0.6988,,0.6372,,0.6244,,0.8301,,0.973,,0.7717
35,416273,,0.77,,1.0405,,0.7855,,1.1357,,1.0395,,0.7364,,0.7993,,1.0692,,0.6695,,1.0195,,0.6601,,0.8017,,0.5897,,0.8509,,1.1668,,0.8248,,0.7004,,0.6395,,1.0746,,0.8929,,0.6349,,0.8649,,0.6745,,0.634,,0.591,,0.7987,,0.8528,,0.7705
36,426275,,0.7518,,0.9959,,0.7568,,1.1075,,0.9821,,0.7302,,0.794,,1.029,,0.6647,,1.0172,,0.6471,,0.7837,,0.601,,0.8557,,1.0788,,0.7719,,0.6866,,0.6313,,1.0647,,0.8722,,0.6298,,0.8481,,0.669,,0.6262,,0.5716,,0.7816,,0.804,,0.7629
37,436275,,0.7583,,0.9721,,0.7726,,1.0762,,0.9435,,0.727,,0.7859,,0.9874,,0.671,,0.93,,0.6394,,0.7515,,0.6031,,0.7763,,1.0439,,0.7318,,0.6947,,0.6321,,1.063,,0.8916,,0.6275,,0.851,,0.6726,,0.6353,,0.5856,,0.7771,,0.7466,,0.7559
38,446274,,0.7545,,0.9686,,0.7966,,1.0563,,0.9061,,0.7209,,0.7833,,0.9332,,0.6679,,0.9564,,0.6383,,0.7396,,0.6038,,0.7401,,1.0165,,0.7138,,0.703,,0.6369,,1.108,,0.8892,,0.6419,,0.87,,0.6662,,0.6259,,0.5786,,0.7692,,0.7289,,0.7641
39,456274,,0.7466,,1.015,,0.8052,,1.0821,,0.8924,,0.7326,,0.7914,,0.9509,,0.6688,,0.9918,,0.6178,,0.7126,,0.6076,,0.6468,,1.06,,0.707,,0.6817,,0.6378,,1.0795,,0.8834,,0.6437,,0.8864,,0.6686,,0.6378,,0.6002,,0.7651,,0.7129,,0.7407
40,466273,,0.7301,,1.0002,,0.82,,1.0994,,0.9031,,0.7327,,0.7787,,0.9793,,0.6503,,0.9557,,0.6265,,0.7302,,0.6227,,0.6104,,1.0333,,0.7098,,0.7055,,0.6191,,1.1131,,0.8859,,0.6423,,0.8808,,0.6766,,0.6309,,0.5908,,0.7677,,0.6855,,0.7404
41,476273,,0.7318,,0.9827,,0.8309,,1.0702,,0.8848,,0.7256,,0.7737,,1.007,,0.6598,,0.9668,,0.6363,,0.7343,,0.9654,,0.594,,0.9611,,0.6828,,0.69,,0.6156,,1.0281,,0.8735,,0.6326,,0.882,,0.6719,,0.6344,,0.6012,,0.776,,0.6487,,0.7645
42,486273,,0.7498,,0.9746,,0.8347,,1.0762,,0.8559,,0.7323,,0.7572,,0.9489,,0.6587,,0.9151,,0.6344,,0.7484,,0.8738,,0.5938,,0.9609,,0.6794,,0.6715,,0.6111,,0.9875,,0.8945,,0.6449,,0.8732,,0.6707,,0.621,,0.5964,,0.7708,,0.626,,0.7741
43,496273,,0.7508,,0.914,,0.8601,,1.0994,,0.8419,,0.7306,,0.7536,,0.9092,,0.6554,,0.8919,,0.6212,,0.7224,,0.6876,,0.5876,,0.9573,,0.6803,,0.7028,,0.6147,,1.0466,,0.8924,,0.6528,,0.8762,,0.6659,,0.6294,,0.599,,0.7796,,0.6232,,0.756
44,506272,,0.7475,,0.9358,,0.8774,,1.0164,,0.8435,,0.7278,,0.7481,,0.9116,,0.66,,0.917,,0.6214,,0.6831,,0.6158,,0.5665,,0.9767,,0.6781,,0.6722,,0.6073,,1.1243,,0.8701,,0.6596,,0.8822,,0.6539,,0.6316,,0.5953,,0.7699,,0.5946,,0.7311
45,516272,,0.7304,,0.9406,,0.8817,,0.9957,,0.8473,,0.7215,,0.746,,0.8982,,0.6484,,0.9204,,0.6243,,0.6523,,0.614,,0.5745,,0.9147,,0.6622,,0.6525,,0.6102,,1.0949,,0.9042,,0.6497,,0.8719,,0.6584,,0.6382,,0.594,,0.7789,,0.6008,,0.7573
46,526271,,0.7433,,0.8908,,0.8829,,1.1125,,0.8045,,0.731,,0.7456,,0.9031,,0.6395,,0.8756,,0.6126,,0.6286,,0.5981,,0.5579,,0.9442,,0.6555,,0.6843,,0.6125,,0.8789,,0.8869,,0.6513,,0.8823,,0.6492,,0.6276,,0.5965,,0.7651,,0.5884,,0.7607
47,536271,,0.7174,,0.867,,0.87,,1.0889,,0.7935,,0.7177,,0.7627,,0.8717,,0.6254,,0.9032,,0.6164,,0.6346,,0.6189,,0.5731,,0.983,,0.6423,,0.6623,,0.6016,,0.8669,,0.8767,,0.6485,,0.8778,,0.644,,0.6337,,0.6078,,0.761,,0.5893,,0.772
48,546270,,0.7126,,0.8081,,0.8793,,0.9939,,0.7523,,0.7187,,0.7753,,0.895,,0.636,,0.8803,,0.6119,,0.6094,,0.6009,,0.5666,,0.9343,,0.6282,,0.6599,,0.6006,,0.8721,,0.8726,,0.6497,,0.8792,,0.6403,,0.6274,,0.6011,,0.7726,,0.5637,,0.7283
49,556270,,0.7022,,0.7994,,0.8671,,1.1071,,0.7282,,0.719,,0.7443,,0.9039,,0.6315,,0.8573,,0.6081,,0.6142,,0.6212,,0.5737,,0.8839,,0.6181,,0.6683,,0.6239,,0.9082,,0.8518,,0.6496,,0.883,,0.6422,,0.6269,,0.6239,,0.7666,,0.5917,,0.7409
50,566271,,0.7121,,0.7896,,0.8814,,1.0406,,0.7191,,0.7159,,0.7366,,0.8997,,0.651,,0.7995,,0.6069,,0.6016,,0.6122,,0.5743,,0.9383,,0.6033,,0.6803,,0.6467,,1.0777,,0.8617,,0.6505,,0.871,,0.6542,,0.6438,,0.6246,,0.7726,,0.5796,,0.7473
51,576270,,0.7173,,0.7866,,0.8872,,1.0249,,0.7154,,0.7289,,0.7625,,0.9005,,0.6333,,0.7917,,0.6261,,0.6204,,0.832,,0.5687,,0.9006,,0.6042,,0.6767,,0.6654,,1.0104,,0.8872,,0.6523,,0.8607,,0.642,,0.6397,,0.6587,,0.7643,,0.5532,,0.7555
52,586270,,0.7087,,0.8221,,0.8824,,0.9633,,0.7129,,0.7461,,0.7411,,0.8789,,0.6389,,0.8009,,0.6232,,0.6112,,0.8044,,0.6315,,0.9604,,0.5941,,0.6939,,0.7469,,1.0855,,0.8783,,0.6449,,0.8852,,0.6391,,0.6477,,0.6924,,0.7765,,0.5602,,0.7569
53,596269,,0.7073,,0.7689,,0.9269,,1.0055,,0.7189,,0.7891,,0.7458,,0.8422,,0.6618,,0.7791,,0.6109,,0.6095,,0.676,,1.0138,,0.9246,,0.5909,,0.6755,,1.0658,,0.853,,0.8884,,0.6396,,0.8509,,0.6457,,0.6624,,1.0657,,0.7533,,0.5628,,0.7393
54,606268,,0.7022,,0.7548,,0.9623,,1.0515,,0.7191,,1.2107,,0.7545,,0.838,,0.7879,,0.7671,,0.6049,,0.6026,,0.598,,0.9289,,0.8936,,0.5916,,0.7223,,1.2506,,0.9919,,0.8697,,0.6531,,0.8845,,0.6482,,0.6602,,1.0713,,0.7659,,0.5592,,0.745
55,616270,,0.7176,,0.7136,,1.0716,,1.0694,,0.7052,,1.0538,,0.7377,,0.8334,,1.1881,,0.7554,,0.6018,,0.5931,,0.6028,,0.8902,,0.9937,,0.5763,,0.8383,,1.2018,,0.9834,,0.8834,,0.649,,0.8926,,0.658,,0.728,,1.1142,,0.7822,,0.5773,,0.7608
56,626269,,0.7093,,0.7166,,1.1669,,1.0566,,0.7207,,1.2409,,0.7681,,0.8273,,1.0482,,0.76,,0.5969,,0.5858,,0.5912,,0.8737,,0.8628,,0.5829,,0.8147,,1.2373,,0.8159,,0.8782,,0.6488,,0.8938,,0.6501,,0.7295,,1.1998,,0.8204,,0.5514,,0.737
57,636269,,0.7122,,0.7087,,1.2853,,1.0468,,0.706,,1.1346,,0.7555,,0.8131,,0.8752,,0.7425,,0.6119,,0.5964,,0.6032,,0.8433,,0.8004,,0.5774,,0.7869,,1.2756,,0.8583,,0.8709,,0.6427,,0.8716,,0.6658,,0.7605,,1.0636,,1.0963,,0.5482,,0.7277
58,646267,,0.7075,,0.6907,,1.2215,,1.0283,,0.6832,,0.9871,,0.748,,0.7895,,0.8146,,0.7198,,0.6,,0.5893,,0.6099,,0.8114,,0.7814,,0.5643,,0.7287,,1.1513,,1.0129,,0.9023,,0.6472,,0.8983,,0.9144,,0.7568,,1.2972,,0.8191,,0.5561,,0.7539
59,656268,,0.7109,,0.6828,,1.26,,0.9659,,0.6954,,1.236,,0.7387,,0.7949,,0.8267,,0.6731,,0.6068,,0.6047,,0.6113,,0.8035,,0.8177,,0.5701,,0.7473,,1.1401,,1.0034,,0.8861,,0.6499,,0.8952,,0.77,,0.7704,,1.0324,,1.1051,,0.5658,,0.7217
60,666267,,0.7088,,0.6813,,1.3311,,0.9423,,0.7025,,1.0526,,0.7221,,0.7704,,0.8079,,0.6857,,0.6028,,0.572,,0.6201,,0.7492,,0.7879,,0.5723,,0.7309,,1.0666,,0.8378,,0.873,,0.6435,,0.9007,,0.668,,0.7405,,1.1585,,0.8158,,0.5496,,0.7393
61,676266,,0.7026,,0.6736,,1.0574,,0.9249,,0.6769,,1.0131,,0.7378,,0.7876,,0.7873,,0.6796,,0.6194,,0.5974,,0.8202,,0.7899,,0.7864,,0.5742,,0.7368,,1.0629,,0.7908,,0.8624,,0.65,,0.8834,,0.7007,,0.7446,,1.0453,,1.1117,,0.5484,,0.7415
62,686267,,0.7124,,0.6689,,1.374,,0.9899,,0.6891,,1.0081,,0.7164,,0.7707,,0.7996,,0.6779,,0.6102,,0.5736,,0.6701,,0.7891,,0.7625,,0.5655,,0.7275,,1.0045,,0.876,,0.8871,,0.6491,,0.8869,,0.948,,0.7822,,1.0581,,0.819,,0.5403,,0.7418
63,696269,,0.7117,,0.6693,,1.1783,,0.9404,,0.6956,,0.9977,,0.7321,,0.7461,,0.7952,,0.6617,,0.6012,,0.5733,,0.6113,,0.7672,,0.7561,,0.5602,,0.7343,,1,,0.8853,,0.8882,,0.6543,,0.8819,,0.7303,,0.725,,1.0334,,1.1231,,0.5636,,0.7668
64,706266,,0.7073,,0.6501,,1.0347,,0.9569,,0.6974,,0.9774,,0.7316,,0.7169,,0.788,,0.6489,,0.6003,,0.5796,,0.5921,,0.7567,,0.8305,,0.5704,,0.7277,,1.0094,,0.8037,,0.8534,,0.653,,0.898,,0.6595,,0.7456,,1.03,,0.9242,,0.5441,,0.7384
65,716264,,0.7135,,0.6576,,1.2256,,0.9944,,0.7101,,0.9981,,0.7152,,0.7198,,0.7958,,0.6134,,0.5994,,0.5819,,0.5904,,0.7462,,0.7609,,0.5649,,0.7492,,0.9716,,0.8535,,0.8649,,0.6544,,0.8902,,0.6613,,0.7369,,1.0438,,1.0719,,0.5652,,0.7457
66,750487,,0.701,,0.6699,,0.9875,,0.9158,,0.6806,,0.9626,,0.716,,0.7264,,0.8153,,0.5995,,0.5945,,0.5756,,0.5744,,0.7795,,0.622,,0.5546,,0.7055,,0.8481,,0.6184,,0.9225,,0.6462,,0.8871,,0.6957,,0.6714,,0.9606,,1.0671,,0.5555,,0.776
67,760482,,0.7068,,0.6674,,0.9933,,0.9023,,0.676,,0.9462,,0.7269,,0.7037,,0.7922,,0.5893,,0.5815,,0.5845,,0.5982,,0.7845,,0.6152,,0.5479,,0.7235,,0.834,,0.6374,,0.8836,,0.6548,,0.8807,,0.693,,0.7085,,0.9493,,1.0791,,0.5655,,0.7544
68,770482,,0.694,,0.6483,,0.9636,,0.8964,,0.6694,,0.944,,0.7088,,0.693,,0.7689,,0.5807,,0.5912,,0.5687,,0.5947,,0.7964,,0.6101,,0.5483,,0.7019,,0.8438,,0.6569,,0.8844,,0.6491,,0.9006,,0.7118,,0.7117,,0.9421,,1.0736,,0.5756,,0.7608
69,780483,,0.7031,,0.658,,0.951,,0.8889,,0.6778,,0.9313,,0.7161,,0.6871,,0.7712,,0.5878,,0.581,,0.5801,,0.5938,,0.7755,,0.6141,,0.5506,,0.7021,,0.8043,,0.6935,,0.8492,,0.6449,,0.882,,0.7141,,0.6658,,0.9365,,1.1248,,0.5479,,0.7606
70,790482,,0.7063,,0.6487,,0.934,,0.9461,,0.6786,,0.8921,,0.7132,,0.6855,,0.7475,,0.5997,,0.5931,,0.5782,,0.5833,,0.7497,,0.6042,,0.5509,,0.6651,,0.7938,,0.6818,,0.8525,,0.6501,,0.8886,,0.6972,,0.648,,0.9521,,1.0512,,0.5478,,0.7336
71,800482,,0.7146,,0.6523,,0.9223,,0.9372,,0.6891,,0.8954,,0.7025,,0.6909,,0.7531,,0.6236,,0.5795,,0.5789,,0.5958,,0.7559,,0.5999,,0.5504,,0.6754,,0.7878,,0.6679,,0.8817,,0.6375,,0.8958,,0.701,,0.6442,,0.9046,,1.0238,,0.5503,,0.7592
72,810476,,0.7165,,0.636,,0.9001,,0.8963,,0.6977,,0.8765,,0.712,,0.6897,,0.7402,,0.605,,0.5996,,0.5893,,0.5896,,0.7522,,0.5984,,0.5589,,0.6764,,0.7713,,0.6462,,0.8564,,0.6463,,0.8884,,0.7124,,0.6481,,0.8906,,1.0644,,0.553,,0.754
73,820473,,0.7084,,0.6581,,0.9006,,0.8776,,0.6979,,0.8737,,0.7117,,0.6785,,0.7239,,0.6033,,0.5919,,0.5787,,0.6016,,0.7465,,0.6033,,0.5577,,0.683,,0.7383,,0.6481,,0.8719,,0.6445,,0.8903,,0.6964,,0.6394,,0.8711,,1.0349,,0.5632,,0.7616
74,830473,,0.7114,,0.6542,,0.8824,,0.8785,,0.7079,,0.8548,,0.718,,0.6854,,0.7238,,0.6028,,0.607,,0.5939,,0.5992,,0.7659,,0.5879,,0.5565,,0.6792,,0.7094,,0.7162,,0.8797,,0.6443,,0.8948,,0.704,,0.6388,,0.8746,,1.0563,,0.5557,,0.739
75,840474,,0.7025,,0.6379,,0.8739,,0.8507,,0.6938,,0.848,,0.698,,0.6777,,0.6945,,0.586,,0.5986,,0.5865,,0.6092,,0.7352,,0.6034,,0.5587,,0.6784,,0.6835,,0.7426,,0.8682,,0.6453,,0.8831,,0.7032,,0.6348,,0.8793,,1.0452,,0.5613,,0.7749
76,850473,,0.7032,,0.6489,,0.8693,,0.8831,,0.7003,,0.8367,,0.6997,,0.69,,0.6851,,0.6004,,0.5906,,0.5879,,0.5961,,0.7732,,0.5736,,0.5632,,0.6722,,0.6649,,0.7946,,0.8325,,0.6446,,0.8775,,0.6805,,0.6402,,0.8525,,1.0299,,0.549,,0.7609
77,860472,,0.7121,,0.6484,,0.8568,,0.8566,,0.7065,,0.8203,,0.7121,,0.6787,,0.6979,,0.6044,,0.5966,,0.5845,,0.5967,,0.7611,,0.5857,,0.5514,,0.6799,,0.6636,,0.7657,,0.8545,,0.6495,,0.8802,,0.6924,,0.6269,,0.8747,,1.0204,,0.5512,,0.763
78,870471,,0.7088,,0.6583,,0.86,,0.8508,,0.6994,,0.8139,,0.7135,,0.6829,,0.6967,,0.5994,,0.6056,,0.6094,,0.7068,,0.7556,,0.5982,,0.5485,,0.6654,,0.6498,,0.7019,,0.8438,,0.6396,,0.8799,,0.6876,,0.6342,,0.8228,,1.052,,0.5404,,0.7666
79,880472,,0.7188,,0.6508,,0.8476,,0.8428,,0.6935,,0.7999,,0.7083,,0.6896,,0.7024,,0.5985,,0.6025,,0.5816,,0.7141,,0.7786,,0.6021,,0.5397,,0.672,,0.6376,,0.6771,,0.8742,,0.6452,,0.8869,,0.6821,,0.6239,,0.843,,1.0168,,0.5653,,0.7247
80,890471,,0.7074,,0.6636,,0.8465,,0.8504,,0.673,,0.7863,,0.7286,,0.6916,,0.6923,,0.5903,,0.5967,,0.591,,0.5952,,0.7756,,0.5937,,0.5428,,0.6633,,0.6319,,0.6398,,0.8666,,0.6386,,0.8888,,0.6742,,0.6182,,0.8556,,0.9943,,0.5439,,0.7599
81,900470,,0.7132,,0.6601,,0.8269,,0.8291,,0.6821,,0.7818,,0.7235,,0.6971,,0.7079,,0.5912,,0.6059,,0.5835,,0.5995,,0.751,,0.5696,,0.5502,,0.6641,,0.6185,,0.6005,,0.8637,,0.6475,,0.8853,,0.6795,,0.6144,,0.8376,,1.0212,,0.5719,,0.7808
82,910470,,0.7205,,0.6459,,0.842,,0.7974,,0.6928,,0.803,,0.7296,,0.7037,,0.6927,,0.5825,,0.608,,0.5859,,0.5753,,0.7347,,0.5669,,0.5438,,0.6663,,0.6197,,0.5716,,0.8834,,0.6427,,0.8894,,0.6938,,0.622,,0.8103,,1.0294,,0.5595,,0.7768
83,920470,,0.7116,,0.6472,,0.8398,,0.8001,,0.6751,,0.7786,,0.7241,,0.6922,,0.7176,,0.5984,,0.5933,,0.5991,,0.5937,,0.7524,,0.5669,,0.5441,,0.6575,,0.6044,,0.5982,,0.8843,,0.6337,,0.8867,,0.6873,,0.6164,,0.78,,1.0014,,0.57,,0.7658
84,930470,,0.7212,,0.654,,0.8303,,0.8221,,0.6973,,0.7791,,0.7271,,0.6819,,0.6911,,0.584,,0.5931,,0.6098,,0.5841,,0.7418,,0.564,,0.5431,,0.6531,,0.6016,,0.5804,,0.8865,,0.6472,,0.8821,,0.6807,,0.6157,,0.8066,,1.0068,,0.5604,,0.7681
85,940469,,0.7194,,0.6535,,0.8324,,0.812,,0.6894,,0.7761,,0.7292,,0.6888,,0.6991,,0.6055,,0.5928,,0.5985,,0.601,,0.7355,,0.5705,,0.5435,,0.6434,,0.5973,,0.5828,,0.8596,,0.6373,,0.877,,0.6752,,0.6108,,0.7795,,1.0147,,0.5631,,0.7505
86,950469,,0.7185,,0.659,,0.8264,,0.8189,,0.7162,,0.7613,,0.7052,,0.7017,,0.6976,,0.6058,,0.5882,,0.6028,,0.5842,,0.7342,,0.562,,0.5467,,0.6652,,0.5836,,0.5592,,0.8645,,0.643,,0.8677,,0.6681,,0.6114,,0.7864,,1.008,,0.5653,,0.774
87,960469,,0.7314,,0.6615,,0.8225,,0.8034,,0.6974,,0.756,,0.7328,,0.6856,,0.7177,,0.606,,0.5895,,0.5913,,0.5815,,0.7221,,0.5591,,0.5466,,0.6621,,0.5762,,0.5751,,0.8732,,0.6383,,0.8761,,0.6546,,0.6159,,0.7852,,1.0028,,0.545,,0.7678
88,970468,,0.7239,,0.6596,,0.8218,,0.7695,,0.7074,,0.7478,,0.7152,,0.6963,,0.7026,,0.5744,,0.5918,,0.598,,0.5912,,0.7177,,0.5575,,0.5318,,0.6381,,0.5676,,0.5681,,0.8523,,0.6436,,0.8696,,0.6449,,0.6031,,0.7706,,1.046,,0.5554,,0.7792
89,980468,,0.7131,,0.6552,,0.7993,,0.7844,,0.6972,,0.7569,,0.7228,,0.6815,,0.6893,,0.5895,,0.581,,0.5964,,0.5994,,0.7226,,0.5701,,0.5327,,0.6603,,0.5735,,0.5622,,0.8391,,0.6469,,0.8893,,0.6346,,0.6064,,0.761,,0.9979,,0.5561,,0.7575
90,990468,,0.7142,,0.6539,,0.8081,,0.7803,,0.6966,,0.7458,,0.7111,,0.679,,0.6762,,0.5857,,0.5902,,0.5988,,0.5849,,0.7245,,0.571,,0.5374,,0.6571,,0.5701,,0.5702,,0.8967,,0.6439,,0.8587,,0.6489,,0.6152,,0.7783,,1.0139,,0.5521,,0.7992
91,1000467,,0.7119,,0.646,,0.8012,,0.7729,,0.6841,,0.7335,,0.7228,,0.6804,,0.6954,,0.5763,,0.5839,,0.6011,,0.588,,0.6941,,0.5541,,0.5353,,0.6577,,0.5622,,0.5848,,0.8762,,0.6471,,0.881,,0.6446,,0.6127,,0.7554,,1.0216,,0.5505,,0.7741
92,1010467,,0.7357,,0.6419,,0.8118,,0.7679,,0.6991,,0.7317,,0.7218,,0.6856,,0.6815,,0.5807,,0.5981,,0.5934,,0.6076,,0.6855,,0.5699,,0.5346,,0.6611,,0.5654,,0.6052,,0.8731,,0.6449,,0.8816,,0.6406,,0.6143,,0.7551,,1.0048,,0.5523,,0.7849
93,1020468,,0.7274,,0.6452,,0.805,,0.7577,,0.6994,,0.7232,,0.7136,,0.6759,,0.6667,,0.5696,,0.5885,,0.5835,,0.5897,,0.661,,0.5613,,0.5236,,0.639,,0.5708,,0.62,,0.8749,,0.6365,,0.874,,0.6425,,0.6138,,0.7221,,1.0091,,0.559,,0.7903
94,1047396,,0.7887,,0.6903,,0.8687,,0.7973,,0.7622,,0.7228,,0.7666,,0.6805,,0.706,,0.6375,,0.6285,,0.6079,,0.7052,,0.6467,,0.6186,,0.5879,,0.6572,,0.65,,0.6691,,0.9384,,0.6601,,0.8313,,0.6376,,0.6431,,0.7471,,1.0475,,0.6068,,1.0343
95,1057380,,0.824,,0.7629,,0.8518,,0.825,,0.818,,0.73,,0.8207,,0.7106,,0.7268,,0.6866,,0.6561,,0.6551,,0.72,,0.6751,,0.6499,,0.6319,,0.6858,,0.7424,,0.6774,,0.9762,,0.7172,,0.8351,,0.6473,,0.7025,,0.7399,,1.0804,,0.6665,,1.0825
96,1067379,,0.8617,,0.7894,,0.8345,,0.842,,0.8129,,0.7411,,0.8651,,0.7411,,0.7371,,0.6904,,0.689,,0.67,,0.7777,,0.6824,,0.695,,0.6609,,0.681,,0.8027,,0.702,,0.9786,,0.7463,,0.8314,,0.656,,0.7299,,0.7643,,1.0339,,0.6993,,1.0277
97,1077381,,0.8831,,0.8285,,0.8179,,0.8527,,0.8368,,0.7355,,0.8708,,0.7491,,0.7316,,0.7062,,0.6965,,0.7018,,0.7664,,0.6972,,0.7073,,0.6672,,0.6898,,0.792,,0.7089,,0.9943,,0.7599,,0.8149,,0.6582,,0.7573,,0.7412,,0.9629,,0.7046,,1.0437
98,1087380,,0.8722,,0.8016,,0.8044,,0.8572,,0.8449,,0.7352,,0.8799,,0.7616,,0.7189,,0.7084,,0.7051,,0.7252,,0.7771,,0.6904,,0.743,,0.699,,0.6626,,0.8114,,0.7157,,0.9812,,0.7806,,0.8259,,0.6661,,0.7577,,0.7321,,0.8965,,0.7275,,1.0161
99,1097379,,0.8813,,0.8183,,0.7842,,0.8692,,0.8262,,0.7279,,0.8912,,0.7639,,0.7012,,0.7104,,0.7207,,0.7202,,0.7818,,0.6811,,0.7194,,0.729,,0.6735,,0.7869,,0.7523,,0.9774,,0.7819,,0.8094,,0.669,,0.7576,,0.7267,,0.8843,,0.7154,,1.0271
100,1107379,,0.8675,,0.8164,,0.7746,,0.8607,,0.8215,,0.725,,0.8979,,0.7753,,0.7035,,0.7123,,0.7203,,0.7233,,0.759,,0.6845,,0.7377,,0.7254,,0.6638,,0.775,,0.7401,,1.0075,,0.7883,,0.822,,0.6524,,0.7535,,0.7122,,0.8968,,0.7167,,1.0159
101,1117380,,0.8653,,0.8265,,0.7689,,0.8531,,0.8206,,0.7244,,0.8826,,0.7786,,0.6743,,0.6945,,0.7004,,0.7517,,0.7616,,0.7302,,0.7213,,0.7488,,0.6539,,0.7643,,0.7353,,1.0052,,0.8068,,0.8101,,0.6518,,0.7483,,0.695,,0.8703,,0.7418,,0.9895
102,1127379,,0.8711,,0.8281,,0.7599,,0.8177,,0.7928,,0.7042,,0.8977,,0.7793,,0.6657,,0.7231,,0.6924,,0.7431,,0.7633,,0.6983,,0.7249,,0.7459,,0.6456,,0.7409,,0.7452,,0.9961,,0.7977,,0.8172,,0.6486,,0.7476,,0.7219,,0.8625,,0.7178,,0.9948
103,1137379,,0.8724,,0.8214,,0.7631,,0.8231,,0.7936,,0.7135,,0.9228,,0.7567,,0.6674,,0.701,,0.6885,,0.7586,,0.7809,,0.7203,,0.7161,,0.7517,,0.6401,,0.7155,,0.735,,0.991,,0.7994,,0.8141,,0.6412,,0.7375,,0.7172,,0.8593,,0.7125,,1.0073
104,1147378,,0.8636,,0.8008,,0.7621,,0.8143,,0.7868,,0.7069,,0.919,,0.758,,0.659,,0.7091,,0.683,,0.7271,,0.7684,,0.7311,,0.7029,,0.7592,,0.6462,,0.7109,,0.7539,,0.9839,,0.7974,,0.815,,0.6402,,0.7423,,0.736,,0.8647,,0.7322,,0.9511
105,1157380,,0.8677,,0.803,,0.7612,,0.8085,,0.7662,,0.7119,,0.9176,,0.7755,,0.6486,,0.7211,,0.6774,,0.7276,,0.7473,,0.7283,,0.7162,,0.7552,,0.6391,,0.6997,,0.7465,,0.9602,,0.8063,,0.8113,,0.6492,,0.7386,,0.7158,,0.8452,,0.7106,,0.9786
106,1167378,,0.858,,0.8098,,0.7462,,0.7907,,0.7635,,0.7027,,0.9333,,0.7449,,0.6376,,0.7314,,0.6668,,0.7219,,0.7342,,0.7421,,0.7015,,0.767,,0.6333,,0.6922,,0.7066,,0.9816,,0.807,,0.8184,,0.6471,,0.7376,,0.7046,,0.8554,,0.736,,1.0064
107,1177377,,0.855,,0.8086,,0.7389,,0.7946,,0.747,,0.7108,,0.9353,,0.7338,,0.6369,,0.7261,,0.6704,,0.7166,,0.7341,,0.7628,,0.6912,,0.7573,,0.6549,,0.6829,,0.7024,,0.961,,0.8034,,0.8097,,0.6461,,0.7315,,0.7251,,0.8552,,0.718,,1.014
108,1187378,,0.8621,,0.8007,,0.7418,,0.8116,,0.7593,,0.703,,0.9293,,0.7584,,0.6343,,0.7263,,0.6622,,0.7042,,0.7546,,0.7508,,0.6977,,0.7597,,0.6497,,0.6698,,0.7035,,0.9646,,0.821,,0.8237,,0.6425,,0.7224,,0.7193,,0.8514,,0.7395,,1.0102
109,1197376,,0.8666,,0.7896,,0.7342,,0.7881,,0.7648,,0.7022,,0.943,,0.7327,,0.6109,,0.6946,,0.6474,,0.6932,,0.7054,,0.7465,,0.6689,,0.7531,,0.6409,,0.6666,,0.6873,,0.9519,,0.8182,,0.8112,,0.6363,,0.715,,0.7242,,0.8599,,0.7122,,0.9884
110,1207377,,0.8564,,0.7937,,0.7403,,0.776,,0.7479,,0.698,,0.9171,,0.7127,,0.6182,,0.6907,,0.645,,0.6872,,0.7035,,0.7817,,0.6773,,0.7471,,0.6405,,0.6496,,0.6841,,0.988,,0.8128,,0.8255,,0.6305,,0.719,,0.7059,,0.8448,,0.727,,0.9666
111,1217375,,0.8422,,0.7676,,0.7404,,0.782,,0.7336,,0.7005,,0.9333,,0.7237,,0.6226,,0.7014,,0.6468,,0.6769,,0.7006,,0.7818,,0.6987,,0.7548,,0.6461,,0.65,,0.6777,,0.9901,,0.8052,,0.7996,,0.6308,,0.7088,,0.7379,,0.8495,,0.7032,,0.9882